lsl_timestamp,TP9,AF7,AF8,TP10,Right AUX
103458.094673625,17.08984375,-30.2734375,-65.4296875,185.546875,0.0
103458.098579875,-11.71875,-54.6875,-77.1484375,-255.859375,0.0
103458.102486125,-34.66796875,-77.1484375,-67.87109375,-215.8203125,0.0
103458.106392375,2.44140625,-70.3125,-52.24609375,217.28515625,0.0
103458.110298625,8.30078125,-58.10546875,-41.50390625,261.23046875,0.0
103458.114204875,9.765625,-62.01171875,-48.828125,-162.59765625,0.0
103458.118111125,-28.3203125,-167.96875,-55.17578125,-278.80859375,0.0
103458.122017375,0.0,-92.28515625,-44.921875,97.16796875,0.0
103458.125923625,-5.37109375,36.1328125,-30.76171875,301.7578125,0.0
103458.129829875,-6.8359375,-44.43359375,-32.71484375,-47.36328125,0.0
103458.133736125,-35.15625,-66.89453125,-43.45703125,-314.94140625,0.0
103458.137642375,-8.7890625,-26.85546875,-45.8984375,-19.53125,0.0
103458.143086833,4.8828125,-40.0390625,-44.43359375,312.01171875,0.0
103458.146993083,0.9765625,-95.21484375,-45.41015625,62.98828125,0.0
103458.150899333,-35.64453125,-94.7265625,-46.38671875,-316.89453125,0.0
103458.154805583,-27.83203125,-51.7578125,-55.6640625,-133.30078125,0.0
103458.158711833,-9.765625,-108.3984375,-66.40625,255.859375,0.0
103458.162618083,-3.41796875,-175.78125,-61.5234375,163.57421875,0.0
103458.166524333,-8.7890625,-135.7421875,-40.0390625,-224.12109375,0.0
103458.170430583,-23.92578125,19.04296875,-29.296875,-218.26171875,0.0
103458.174336833,0.48828125,-1.953125,-38.57421875,151.85546875,0.0
103458.178243083,-19.04296875,-132.8125,-41.015625,231.4453125,0.0
103458.182149333,-12.6953125,-101.07421875,-24.90234375,-141.11328125,0.0
103458.186055583,-39.55078125,-12.6953125,-27.83203125,-279.78515625,0.0
103458.188851166,-15.13671875,-61.5234375,-45.8984375,58.10546875,0.0
103458.192757416,-7.8125,-135.7421875,-39.0625,270.99609375,0.0
103458.196663666,0.0,-66.89453125,-36.1328125,-28.80859375,0.0
103458.200569916,-35.64453125,-34.1796875,-32.2265625,-291.9921875,0.0
103458.204476166,-22.94921875,-73.2421875,-33.203125,-60.05859375,0.0
103458.208382416,-33.69140625,-120.1171875,-42.48046875,216.30859375,0.0
103458.212288666,-30.2734375,-109.86328125,-37.59765625,15.625,0.0
103458.216194916,-39.0625,-2.44140625,-33.203125,-304.6875,0.0
103458.220101166,-27.34375,20.99609375,-22.4609375,-168.9453125,0.0
103458.224007416,-21.97265625,-120.60546875,-35.64453125,138.671875,0.0
103458.227913666,-42.48046875,-82.03125,-37.59765625,56.640625,0.0
103458.231819916,-34.66796875,25.390625,-20.99609375,-276.3671875,0.0
103458.231858291,-58.59375,-44.921875,-39.0625,-296.38671875,0.0
103458.235764541,-49.31640625,-99.609375,-58.59375,-30.2734375,0.0
103458.239670791,-81.54296875,-70.3125,-53.22265625,-11.23046875,0.0
103458.243577041,-63.4765625,-31.73828125,-27.83203125,-300.29296875,0.0
103458.247483291,-64.94140625,-70.80078125,-19.53125,-354.00390625,0.0
103458.251389541,-63.96484375,-138.18359375,-24.4140625,-93.26171875,0.0
103458.255295791,-88.37890625,-104.00390625,-27.34375,30.76171875,0.0
103458.259202041,-43.45703125,-7.8125,-45.41015625,-192.87109375,0.0
103458.263108291,-37.109375,-95.703125,-54.19921875,-325.68359375,0.0
103458.267014541,-41.50390625,-193.359375,-42.48046875,-117.1875,0.0
103458.270920791,-69.3359375,-40.0390625,-22.4609375,52.24609375,0.0
103458.274827041,-62.5,3.41796875,-13.18359375,-110.83984375,0.0
103458.277568916,-31.73828125,-30.76171875,-3.90625,-281.73828125,0.0
103458.281475166,-28.3203125,-11.71875,-1.46484375,-141.6015625,0.0
103458.285381416,-42.48046875,-37.109375,-23.4375,53.22265625,0.0
103458.289287666,-45.41015625,-102.5390625,-48.33984375,-6.8359375,0.0
103458.293193916,5.859375,-58.59375,-51.26953125,-179.19921875,0.0
103458.297100166,2.44140625,-32.2265625,-50.78125,-123.53515625,0.0
103458.301006416,-12.6953125,-74.21875,-51.7578125,44.921875,0.0
103458.304912666,-62.01171875,-66.40625,-36.1328125,20.5078125,0.0
103458.308818916,-18.06640625,-150.390625,-36.62109375,-156.73828125,0.0
103458.312725166,1.46484375,-58.59375,-28.80859375,-159.1796875,0.0
103458.316631416,-9.765625,72.265625,-7.8125,-2.9296875,0.0
103458.320537666,-49.31640625,-73.73046875,-11.23046875,51.7578125,0.0
103458.324455,-11.71875,-75.68359375,-22.94921875,-91.30859375,0.0
103458.32836125,14.6484375,31.25,-30.2734375,-135.7421875,0.0
103458.3322675,9.27734375,23.92578125,-33.69140625,12.20703125,0.0
103458.33617375,-28.80859375,-108.88671875,-51.7578125,89.35546875,0.0
103458.34008,-18.06640625,-145.5078125,-62.5,-26.85546875,0.0
103458.34398625,23.4375,-66.89453125,-44.43359375,-105.95703125,0.0
103458.3478925,13.671875,-13.18359375,-19.53125,13.18359375,0.0
103458.35179875,-23.92578125,-120.1171875,-15.625,89.35546875,0.0
103458.355705,-62.5,-205.078125,-16.6015625,-15.625,0.0
103458.35961125,-1.46484375,30.76171875,-6.8359375,-117.1875,0.0
103458.3635175,11.23046875,79.58984375,-26.85546875,-17.08984375,0.0
103458.36742375,-14.6484375,-65.4296875,-45.8984375,76.66015625,0.0
103458.370561541,-73.2421875,-98.14453125,-43.9453125,3.41796875,0.0
103458.374467791,-15.13671875,-9.27734375,-33.203125,-97.16796875,0.0
103458.378374041,14.6484375,-15.13671875,-26.3671875,-34.1796875,0.0
103458.382280291,-6.34765625,-107.91015625,-34.66796875,73.73046875,0.0
103458.386186541,-62.5,-163.0859375,-32.2265625,48.828125,0.0
103458.390092791,-39.0625,-90.33203125,-25.390625,-78.61328125,0.0
103458.393999041,9.27734375,0.0,-23.92578125,-61.5234375,0.0
103458.397905291,9.27734375,-124.51171875,-32.2265625,71.77734375,0.0
103458.401811541,-58.59375,-145.5078125,-40.52734375,60.05859375,0.0
103458.405717791,-67.87109375,12.6953125,-31.73828125,-75.1953125,0.0
103458.409624041,8.7890625,23.4375,-26.85546875,-62.98828125,0.0
103458.434719291,22.4609375,-9.765625,-23.92578125,72.265625,0.0
103458.413660875,-34.66796875,-36.62109375,-20.5078125,62.98828125,0.0
103458.417567125,-94.7265625,-41.50390625,-22.94921875,-74.70703125,0.0
103458.421473375,-29.296875,-30.2734375,-33.203125,-104.98046875,0.0
103458.425379625,-11.23046875,1.953125,-28.80859375,13.18359375,0.0
103458.429285875,-55.6640625,-26.85546875,-22.4609375,36.62109375,0.0
103458.433192125,-152.83203125,-115.234375,-22.4609375,-75.1953125,0.0
103458.437098375,-125.9765625,-113.76953125,-20.99609375,-165.52734375,0.0
103458.441004625,-83.0078125,-52.24609375,-23.4375,-73.2421875,0.0
103458.444910875,-102.05078125,59.5703125,-21.97265625,-1.46484375,0.0
103458.448817125,-181.640625,-15.13671875,-20.01953125,-91.30859375,0.0
103458.452723375,-164.0625,-83.49609375,-20.5078125,-212.40234375,0.0
103458.456629625,-118.1640625,30.2734375,-25.390625,-160.15625,0.0
103458.498753958,-120.1171875,95.21484375,-26.3671875,-29.296875,0.0
103458.480614916,-179.6875,-29.78515625,-28.3203125,-88.37890625,0.0
103458.484521166,-225.5859375,-100.09765625,-41.015625,-256.34765625,0.0
103458.488427416,-166.015625,-24.90234375,-43.9453125,-221.19140625,0.0
103458.492333666,-143.06640625,24.4140625,-38.57421875,-49.31640625,0.0
103458.496239916,-186.5234375,-85.9375,-49.31640625,-80.56640625,0.0
103458.500146166,-243.65234375,-269.53125,-51.26953125,-224.609375,0.0
103458.504052416,-153.3203125,-178.22265625,-46.875,-224.609375,0.0
103458.507958666,-108.3984375,-13.18359375,-46.875,-69.3359375,0.0
103458.511864916,-133.30078125,-116.69921875,-45.41015625,-18.06640625,0.0
103458.515771166,-207.51953125,-237.3046875,-46.38671875,-150.390625,0.0
103458.519677416,-151.3671875,-155.76171875,-39.55078125,-226.07421875,0.0
103458.52024875,-68.359375,-110.83984375,-44.43359375,-60.546875,0.0
103458.524155,-56.640625,-194.82421875,-55.6640625,66.40625,0.0
103458.52806125,-129.39453125,-272.4609375,-67.87109375,-51.7578125,0.0
103458.5319675,-114.2578125,-185.546875,-72.75390625,-193.84765625,0.0
103458.53587375,-20.01953125,-78.61328125,-55.17578125,-86.9140625,0.0
103458.53978,-9.27734375,-209.9609375,-37.59765625,80.078125,0.0
103458.54368625,-77.63671875,-292.96875,-32.71484375,12.6953125,0.0
103458.5475925,-100.5859375,-130.859375,-35.64453125,-138.18359375,0.0
103458.55149875,4.8828125,-16.6015625,-35.15625,-74.70703125,0.0
103458.555405,45.8984375,-84.9609375,-29.78515625,125.0,0.0
103458.55931125,9.27734375,-205.56640625,-31.73828125,123.046875,0.0
103458.5632175,-49.8046875,-164.55078125,-34.1796875,-28.80859375,0.0
103458.56908,44.921875,-54.19921875,-38.0859375,-38.57421875,0.0
103458.57298625,108.3984375,-46.38671875,-40.52734375,144.53125,0.0
103458.5768925,80.078125,-75.68359375,-42.96875,182.12890625,0.0
103458.58079875,7.32421875,-124.0234375,-53.7109375,52.734375,0.0
103458.584705,70.3125,-66.40625,-58.10546875,-9.27734375,0.0
103458.58861125,153.80859375,-26.85546875,-60.546875,128.41796875,0.0
103458.5925175,147.4609375,0.9765625,-59.08203125,248.046875,0.0
103458.59642375,79.1015625,-18.06640625,-60.546875,140.13671875,0.0
103458.60033,106.4453125,-75.1953125,-51.26953125,18.5546875,0.0
103458.60423625,189.453125,-32.2265625,-38.0859375,124.51171875,0.0
103458.6081425,172.8515625,26.85546875,-48.33984375,271.97265625,0.0
103458.61204875,91.30859375,-17.08984375,-55.17578125,178.22265625,0.0
103458.614475166,45.41015625,-92.28515625,-51.26953125,7.8125,0.0
103458.618381416,139.16015625,-5.859375,-45.8984375,51.7578125,0.0
103458.622287666,175.29296875,143.5546875,-49.8046875,229.98046875,0.0
103458.626193916,106.93359375,152.34375,-55.6640625,213.8671875,0.0
103458.630100166,23.4375,164.0625,-51.7578125,77.63671875,0.0
103458.634006416,117.1875,322.75390625,-45.41015625,71.77734375,0.0
103458.637912666,184.5703125,485.83984375,-33.203125,225.5859375,0.0
103458.641818916,160.64453125,470.703125,-39.0625,262.20703125,0.0
103458.645725166,64.94140625,236.328125,-68.359375,127.9296875,0.0
103458.649631416,95.21484375,219.7265625,-76.171875,35.64453125,0.0
103458.653537666,182.12890625,496.58203125,-45.8984375,146.97265625,0.0
103458.657443916,178.22265625,472.65625,-23.4375,270.01953125,0.0
103458.659131291,77.1484375,246.09375,-33.69140625,159.66796875,0.0
103458.663037541,62.5,227.5390625,-34.1796875,6.34765625,0.0
103458.666943791,165.0390625,310.05859375,-36.1328125,92.7734375,0.0
103458.670850041,171.875,194.3359375,-42.48046875,268.06640625,0.0
103458.674756291,87.890625,46.875,-39.0625,207.03125,0.0
103458.678662541,33.69140625,47.8515625,-47.36328125,32.2265625,0.0
103458.682568791,125.0,203.61328125,-54.19921875,43.9453125,0.0
103458.686475041,155.76171875,277.83203125,-63.96484375,211.9140625,0.0
103458.690381291,104.98046875,22.4609375,-73.2421875,224.609375,0.0
103458.694287541,10.25390625,-12.20703125,-49.31640625,49.8046875,0.0
103458.698193791,65.91796875,220.703125,-31.25,-28.80859375,0.0
103458.702100041,140.13671875,203.61328125,-40.52734375,137.6953125,0.0
103458.708749541,129.8828125,102.5390625,-41.9921875,226.07421875,0.0
103458.712655791,29.296875,56.640625,-45.8984375,84.9609375,0.0
103458.716562041,33.69140625,92.7734375,-51.7578125,-48.828125,0.0
103458.720468291,126.46484375,104.98046875,-47.8515625,73.2421875,0.0
103458.724374541,133.30078125,73.73046875,-44.43359375,207.03125,0.0
103458.728280791,36.62109375,-8.7890625,-44.43359375,105.46875,0.0
103458.732187041,-3.41796875,-14.6484375,-45.8984375,-46.875,0.0
103458.736093291,90.8203125,33.203125,-53.22265625,14.6484375,0.0
103458.739999541,113.76953125,14.6484375,-53.22265625,183.59375,0.0
103458.743905791,47.8515625,79.1015625,-53.22265625,128.41796875,0.0
103458.747812041,-19.04296875,7.8125,-47.36328125,-32.2265625,0.0
103458.751718291,72.265625,-6.8359375,-37.109375,-33.69140625,0.0
103458.728935083,121.58203125,87.40234375,-33.203125,131.34765625,0.0
103458.732841333,73.2421875,62.5,-37.109375,173.828125,0.0
103458.736747583,-23.92578125,-34.1796875,-41.015625,32.2265625,0.0
103458.740653833,28.80859375,-57.12890625,-41.9921875,-61.03515625,0.0
103458.744560083,109.86328125,67.87109375,-39.0625,69.82421875,0.0
103458.748466333,97.16796875,94.7265625,-35.64453125,187.01171875,0.0
103458.752372583,-1.953125,-9.765625,-41.9921875,81.54296875,0.0
103458.756278833,9.27734375,-89.84375,-47.36328125,-47.8515625,0.0
103458.760185083,102.5390625,49.31640625,-35.64453125,47.8515625,0.0
103458.764091333,106.4453125,175.29296875,-22.4609375,187.01171875,0.0
103458.767997583,24.90234375,0.0,-23.4375,117.67578125,0.0
103458.771903833,-31.73828125,-43.9453125,-27.34375,-46.875,0.0
103458.81670025,71.77734375,90.8203125,-15.625,-20.99609375,0.0
103458.801487583,111.81640625,115.234375,-22.4609375,143.5546875,0.0
103458.805393833,50.29296875,-45.8984375,-31.73828125,126.953125,0.0
103458.809300083,-23.92578125,-121.58203125,-25.87890625,-27.83203125,0.0
103458.813206333,33.69140625,-20.5078125,-30.76171875,-72.265625,0.0
103458.817112583,79.1015625,0.0,-30.2734375,60.546875,0.0
103458.821018833,45.8984375,-104.4921875,-21.484375,123.53515625,0.0
103458.824925083,-54.19921875,-198.73046875,-26.3671875,14.6484375,0.0
103458.828831333,-12.6953125,-17.578125,-16.11328125,-108.88671875,0.0
103458.832737583,67.3828125,60.546875,-14.16015625,-22.4609375,0.0
103458.836643833,43.45703125,-71.77734375,-38.0859375,90.8203125,0.0
103458.840550083,-51.26953125,-190.91796875,-50.78125,15.625,0.0
103458.84163625,-47.8515625,-144.53125,-41.015625,-113.28125,0.0
103458.8455425,45.41015625,-23.4375,-35.64453125,-59.5703125,0.0
103458.84944875,62.5,-55.6640625,-35.15625,104.00390625,0.0
103458.853355,-21.484375,-178.22265625,-37.59765625,77.1484375,0.0
103458.85726125,-81.0546875,-182.6171875,-46.875,-83.49609375,0.0
103458.8611675,17.08984375,-70.80078125,-31.73828125,-88.8671875,0.0
103458.86507375,67.3828125,-131.8359375,-14.6484375,85.9375,0.0
103458.86898,26.85546875,-139.6484375,-14.6484375,122.0703125,0.0
103458.87288625,-61.03515625,-40.52734375,-13.671875,-7.8125,0.0
103458.8767925,12.20703125,-44.921875,-24.90234375,-75.68359375,0.0
103458.88069875,87.890625,-29.296875,-32.71484375,44.921875,0.0
103458.884605,57.12890625,-47.8515625,-26.3671875,113.76953125,0.0
103458.888315875,-41.9921875,-117.1875,-22.4609375,19.53125,0.0
103458.892222125,1.46484375,-133.7890625,-17.578125,-86.42578125,0.0
103458.896128375,90.33203125,-95.703125,-18.5546875,-12.20703125,0.0
103458.900034625,79.58984375,-31.73828125,-27.34375,110.83984375,0.0
103458.903940875,-11.23046875,-67.3828125,-29.296875,44.921875,0.0
103458.907847125,-33.203125,-187.5,-35.15625,-88.37890625,0.0
103458.911753375,62.98828125,-150.390625,-40.52734375,-44.921875,0.0
103458.915659625,87.40234375,45.8984375,-20.5078125,104.00390625,0.0
103458.919565875,9.27734375,-10.7421875,-15.625,83.984375,0.0
103458.923472125,-66.89453125,-163.0859375,-39.0625,-62.01171875,0.0
103458.927378375,20.99609375,-60.546875,-33.203125,-82.51953125,0.0
103458.931284625,67.3828125,46.875,-18.06640625,60.05859375,0.0
103458.936241,17.08984375,-73.2421875,-22.94921875,104.4921875,0.0
103458.94014725,-73.2421875,-161.62109375,-20.5078125,-5.859375,0.0
103458.9440535,3.41796875,-23.92578125,-20.99609375,-83.984375,0.0
103458.94795975,86.42578125,34.1796875,-33.203125,28.3203125,0.0
103458.951866,62.98828125,-22.94921875,-41.9921875,141.11328125,0.0
103458.95577225,-24.4140625,-110.3515625,-49.31640625,83.0078125,0.0
103458.9596785,2.44140625,-82.51953125,-40.52734375,-50.78125,0.0
103458.96358475,66.40625,61.03515625,-27.34375,-9.765625,0.0
103458.967491,55.17578125,47.36328125,-24.90234375,130.859375,0.0
103458.97139725,-27.34375,-163.0859375,-28.3203125,116.69921875,0.0
103458.9753035,-46.875,-116.2109375,-21.97265625,-12.6953125,0.0
103458.97920975,67.87109375,70.80078125,-3.90625,-11.71875,0.0
103459.025870166,84.47265625,-0.9765625,-13.671875,138.18359375,0.0
103459.011991166,12.20703125,-118.65234375,-39.55078125,144.53125,0.0
103459.015897416,-39.0625,-105.46875,-34.66796875,23.92578125,0.0
103459.019803666,42.96875,0.0,-19.53125,-4.39453125,0.0
103459.023709916,70.3125,-4.8828125,-37.59765625,116.2109375,0.0
103459.027616166,28.80859375,-146.97265625,-59.08203125,166.015625,0.0
103459.031522416,-65.4296875,-145.99609375,-57.6171875,53.22265625,0.0
103459.035428666,-0.9765625,-13.18359375,-54.19921875,-59.08203125,0.0
103459.039334916,68.359375,-58.10546875,-45.41015625,42.48046875,0.0
103459.043241166,26.85546875,-124.51171875,-41.50390625,161.1328125,0.0
103459.047147416,-60.546875,-30.76171875,-57.6171875,63.4765625,0.0
103459.051053666,-54.19921875,-35.64453125,-67.87109375,-96.19140625,0.0
103459.030654083,17.08984375,-56.640625,-74.21875,-45.8984375,0.0
103459.034560333,28.80859375,-34.1796875,-72.75390625,113.28125,0.0
103459.038466583,-34.66796875,-101.5625,-68.84765625,87.40234375,0.0
103459.042372833,-88.37890625,-195.3125,-91.30859375,-52.734375,0.0
103459.046279083,8.7890625,-123.046875,-84.9609375,-41.9921875,0.0
103459.050185333,45.8984375,-69.82421875,-50.78125,115.234375,0.0
103459.054091583,-15.13671875,-112.79296875,-46.875,120.1171875,0.0
103459.057997833,-87.890625,-130.37109375,-48.33984375,-21.97265625,0.0
103459.061904083,-11.71875,-172.36328125,-41.50390625,-65.4296875,0.0
103459.065810333,51.26953125,-69.3359375,-45.8984375,62.5,0.0
103459.069716583,25.390625,-51.26953125,-50.78125,126.46484375,0.0
103459.073622833,-55.6640625,-185.05859375,-48.828125,31.73828125,0.0
103459.080104916,-14.6484375,-125.0,-58.59375,-77.63671875,0.0
103459.084011166,41.50390625,-3.41796875,-74.70703125,-9.27734375,0.0
103459.087917416,31.73828125,-42.48046875,-70.3125,114.2578125,0.0
103459.091823666,-59.5703125,-195.3125,-62.5,55.6640625,0.0
103459.095729916,-70.80078125,-198.73046875,-57.12890625,-98.6328125,0.0
103459.099636166,30.2734375,-101.07421875,-47.36328125,-54.19921875,0.0
103459.103542416,52.734375,-26.85546875,-33.69140625,103.515625,0.0
103459.107448666,-28.3203125,-168.45703125,-35.15625,91.30859375,0.0
103459.111354916,-81.0546875,-270.01953125,-48.828125,-34.1796875,0.0
103459.115261166,19.53125,-1.46484375,-54.19921875,-60.05859375,0.0
103459.119167416,50.78125,46.875,-60.546875,71.77734375,0.0
103459.123073666,6.34765625,-104.98046875,-72.75390625,102.05078125,0.0
103459.129160916,-81.0546875,-157.2265625,-70.80078125,-25.390625,0.0
103459.133067166,-25.87890625,-36.62109375,-46.38671875,-107.91015625,0.0
103459.136973416,28.3203125,80.56640625,-31.73828125,-0.9765625,0.0
103459.140879666,10.7421875,13.671875,-29.78515625,101.5625,0.0
103459.144785916,-71.2890625,-72.75390625,-33.69140625,19.04296875,0.0
103459.148692166,-40.52734375,-42.48046875,-41.015625,-110.3515625,0.0
103459.152598416,43.45703125,56.640625,-46.38671875,-43.9453125,0.0
103459.156504666,44.43359375,-62.5,-44.43359375,103.02734375,0.0
103459.160410916,-44.43359375,-108.3984375,-49.8046875,54.6875,0.0
103459.164317166,-57.6171875,27.83203125,-60.546875,-104.00390625,0.0
103459.168223416,40.52734375,20.01953125,-62.01171875,-75.1953125,0.0
103459.172129666,57.6171875,31.73828125,-48.828125,76.171875,0.0
103459.149339708,-3.41796875,-1.46484375,-38.57421875,70.80078125,0.0
103459.153245958,-61.03515625,-46.38671875,-36.1328125,-65.91796875,0.0
103459.157152208,17.08984375,-17.578125,-41.015625,-117.1875,0.0
103459.161058458,52.734375,-18.06640625,-47.36328125,2.44140625,0.0
103459.164964708,0.9765625,-23.92578125,-41.015625,60.05859375,0.0
103459.168870958,-71.2890625,-62.01171875,-40.52734375,-38.57421875,0.0
103459.172777208,-6.8359375,-54.19921875,-38.0859375,-137.20703125,0.0
103459.176683458,56.15234375,-4.39453125,-39.0625,-41.50390625,0.0
103459.180589708,33.203125,101.5625,-29.296875,71.2890625,0.0
103459.184495958,-57.6171875,44.921875,-20.5078125,11.23046875,0.0
103459.188402208,-27.34375,-26.85546875,-27.83203125,-128.90625,0.0
103459.192308458,41.50390625,78.125,-22.94921875,-83.0078125,0.0
103459.222524083,39.55078125,104.00390625,-21.484375,81.0546875,0.0
103459.226430333,-19.04296875,-22.94921875,-33.203125,69.82421875,0.0
103459.230336583,-51.26953125,-66.40625,-44.43359375,-75.68359375,0.0
103459.234242833,26.3671875,8.7890625,-54.19921875,-89.35546875,0.0
103459.238149083,55.6640625,57.6171875,-43.9453125,54.6875,0.0
103459.242055333,-1.46484375,-31.25,-41.50390625,82.03125,0.0
103459.245961583,-80.56640625,-217.28515625,-45.8984375,-23.4375,0.0
103459.249867833,-8.7890625,-90.8203125,-45.8984375,-86.42578125,0.0
103459.253774083,44.921875,127.9296875,-42.48046875,23.4375,0.0
103459.257680333,18.5546875,-7.8125,-40.52734375,117.67578125,0.0
103459.261586583,-52.24609375,-134.27734375,-51.26953125,29.78515625,0.0
103459.265492833,-4.39453125,-67.3828125,-31.73828125,-95.703125,0.0
103459.269793458,20.5078125,-13.18359375,-5.859375,-29.296875,0.0
103459.273699708,-7.32421875,-99.12109375,-24.4140625,105.95703125,0.0
103459.277605958,-71.2890625,-194.3359375,-48.828125,67.87109375,0.0
103459.281512208,-72.75390625,-128.41796875,-44.921875,-77.63671875,0.0
103459.285418458,-4.8828125,-47.36328125,-31.73828125,-57.12890625,0.0
103459.289324708,0.0,-156.25,-11.71875,93.26171875,0.0
103459.293230958,-63.96484375,-283.203125,-6.8359375,91.796875,0.0
103459.297137208,-95.703125,-148.4375,-7.8125,-57.6171875,0.0
103459.301043458,-19.53125,-63.96484375,-8.7890625,-72.75390625,0.0
103459.304949708,-3.41796875,-174.31640625,-15.625,76.171875,0.0
103459.308855958,-40.0390625,-212.890625,-18.5546875,114.2578125,0.0
103459.312762208,-93.75,-184.08203125,-27.34375,-4.39453125,0.0
103459.313789541,-28.3203125,-140.13671875,-16.11328125,-80.078125,0.0
103459.317695791,7.32421875,-104.4921875,-5.859375,22.94921875,0.0
103459.321602041,-6.8359375,-118.1640625,-19.53125,117.1875,0.0
103459.325508291,-75.1953125,-189.94140625,-12.20703125,58.59375,0.0
103459.329414541,-36.62109375,-131.8359375,7.32421875,-58.59375,0.0
103459.333320791,40.0390625,-120.60546875,0.0,2.44140625,0.0
103459.337227041,38.0859375,-110.83984375,-2.9296875,127.9296875,0.0
103459.341133291,-55.6640625,-74.21875,-1.953125,81.0546875,0.0
103459.345039541,-63.96484375,-123.046875,-18.06640625,-60.546875,0.0
103459.348945791,17.08984375,-90.8203125,-28.80859375,-39.55078125,0.0
103459.352852041,36.62109375,-17.578125,-14.6484375,105.95703125,0.0
103459.356758291,-2.44140625,-85.9375,-25.390625,108.88671875,0.0
103459.357881916,-49.8046875,-169.43359375,-38.57421875,-21.484375,0.0
103459.361788166,13.18359375,-32.71484375,-14.6484375,-59.08203125,0.0
103459.365694416,33.203125,86.9140625,-3.90625,61.5234375,0.0
103459.369600666,-4.8828125,21.484375,-5.859375,106.93359375,0.0
103459.373506916,-77.63671875,-104.98046875,-13.18359375,6.34765625,0.0
103459.377413166,-13.18359375,-70.3125,-17.08984375,-83.49609375,0.0
103459.381319416,43.45703125,75.68359375,-15.625,12.20703125,0.0
103459.385225666,16.11328125,87.890625,-28.80859375,109.86328125,0.0
103459.389131916,-78.125,-144.04296875,-48.33984375,49.8046875,0.0
103459.393038166,-57.6171875,-186.03515625,-46.38671875,-77.1484375,0.0
103459.396944416,17.578125,83.49609375,-29.296875,-50.78125,0.0
103459.400850666,16.11328125,68.84765625,-22.94921875,74.70703125,0.0
103459.406172875,-56.15234375,-120.60546875,-33.203125,49.8046875,0.0
103459.410079125,-70.3125,-106.4453125,-41.015625,-101.5625,0.0
103459.413985375,5.859375,-8.7890625,-45.8984375,-107.421875,0.0
103459.417891625,-3.90625,-38.0859375,-52.734375,38.0859375,0.0
103459.421797875,-73.2421875,-125.9765625,-61.03515625,38.0859375,0.0
103459.425704125,-109.375,-173.33984375,-56.15234375,-85.9375,0.0
103459.429610375,-23.92578125,-69.3359375,-40.52734375,-122.0703125,0.0
103459.433516625,14.6484375,26.85546875,-30.2734375,0.48828125,0.0
103459.437422875,-16.11328125,-188.96484375,-31.25,67.87109375,0.0
103459.441329125,-95.21484375,-227.05078125,-39.0625,-28.3203125,0.0
103459.445235375,-30.76171875,-22.94921875,-37.109375,-135.25390625,0.0
103459.449141625,38.0859375,-57.6171875,-29.296875,-36.1328125,0.0
103459.455755958,19.04296875,-134.27734375,-45.41015625,79.58984375,0.0
103459.459662208,-68.359375,-158.203125,-54.19921875,12.20703125,0.0
103459.463568458,-65.91796875,-116.69921875,-41.015625,-127.44140625,0.0
103459.467474708,15.13671875,-83.0078125,-31.25,-76.171875,0.0
103459.471380958,41.015625,-111.81640625,-19.53125,82.03125,0.0
103459.475287208,-59.08203125,-167.96875,-22.4609375,29.296875,0.0
103459.479193458,-102.5390625,-163.0859375,-36.62109375,-143.06640625,0.0
103459.483099708,-1.46484375,-121.09375,-43.45703125,-132.8125,0.0
103459.487005958,13.671875,-113.76953125,-42.48046875,20.01953125,0.0
103459.490912208,-37.59765625,-26.85546875,-51.26953125,32.2265625,0.0
103459.494818458,-100.09765625,-51.7578125,-54.6875,-97.16796875,0.0
103459.498724708,-21.484375,-63.4765625,-51.26953125,-153.3203125,0.0
103459.501887166,28.3203125,6.34765625,-47.8515625,-15.13671875,0.0
103459.505793416,-12.20703125,-17.08984375,-47.8515625,53.22265625,0.0
103459.509699666,-105.46875,-115.234375,-60.05859375,-54.19921875,0.0
103459.513605916,-61.5234375,-107.91015625,-50.29296875,-158.69140625,0.0
103459.517512166,25.87890625,-11.71875,-32.2265625,-63.4765625,0.0
103459.521418416,29.78515625,-36.62109375,-30.2734375,69.82421875,0.0
103459.525324666,-74.21875,-131.34765625,-43.9453125,11.23046875,0.0
103459.529230916,-83.984375,-219.7265625,-53.22265625,-118.65234375,0.0
103459.533137166,7.32421875,-65.91796875,-46.38671875,-75.1953125,0.0
103459.537043416,19.04296875,133.7890625,-35.64453125,64.453125,0.0
103459.540949666,-57.12890625,-41.015625,-28.3203125,36.1328125,0.0
103459.544855916,-91.30859375,-122.0703125,-27.34375,-118.1640625,0.0
103459.566687083,-5.859375,18.06640625,-25.87890625,-130.37109375,0.0
103459.552733166,25.87890625,62.5,-27.83203125,18.5546875,0.0
103459.556639416,-20.99609375,-87.890625,-40.0390625,46.875,0.0
103459.560545666,-106.4453125,-165.0390625,-43.45703125,-71.77734375,0.0
103459.564451916,-20.01953125,-42.96875,-46.38671875,-120.60546875,0.0
103459.568358166,45.41015625,5.37109375,-41.50390625,7.8125,0.0
103459.572264416,18.5546875,-109.375,-38.0859375,101.07421875,0.0
103459.576170666,-69.3359375,-197.265625,-43.9453125,7.32421875,0.0
103459.580076916,-43.45703125,-6.34765625,-24.4140625,-133.7890625,0.0
103459.583983166,17.578125,86.9140625,-20.5078125,-47.36328125,0.0
103459.587889416,0.0,-45.8984375,-40.0390625,92.7734375,0.0
103459.591795666,-67.87109375,-120.60546875,-34.1796875,33.69140625,0.0
103459.596029583,-70.3125,-43.9453125,-21.97265625,-120.60546875,0.0
103459.599935833,11.71875,44.43359375,-15.625,-90.33203125,0.0
103459.603842083,37.59765625,20.01953125,-15.625,62.01171875,0.0
103459.607748333,-20.99609375,-70.80078125,-36.62109375,49.31640625,0.0
103459.611654583,-69.3359375,-52.24609375,-52.734375,-84.47265625,0.0
103459.615560833,1.953125,39.55078125,-26.3671875,-92.28515625,0.0
103459.619467083,8.30078125,-23.92578125,-18.06640625,49.31640625,0.0
103459.623373333,-38.0859375,-42.96875,-33.203125,78.61328125,0.0
103459.627279583,-106.93359375,30.76171875,-20.99609375,-47.8515625,0.0
103459.631185833,-40.0390625,2.44140625,-13.671875,-111.81640625,0.0
103459.635092083,13.18359375,41.50390625,-20.01953125,11.71875,0.0
103459.638998333,-26.85546875,34.66796875,-18.06640625,74.70703125,0.0
103459.643958,-103.515625,-92.7734375,-7.8125,-21.484375,0.0
103459.64786425,-52.734375,-99.12109375,-6.34765625,-127.9296875,0.0
103459.6517705,19.04296875,4.39453125,-14.16015625,-71.2890625,0.0
103459.65567675,7.8125,39.0625,-21.97265625,62.01171875,0.0
103459.659583,-62.5,-59.08203125,-31.73828125,23.92578125,0.0
103459.66348925,-76.66015625,-158.69140625,-50.29296875,-104.98046875,0.0
103459.6673955,8.7890625,-63.96484375,-48.828125,-59.5703125,0.0
103459.67130175,38.0859375,105.46875,-24.4140625,86.9140625,0.0
103459.675208,-13.671875,43.45703125,-4.8828125,68.84765625,0.0
103459.67911425,-93.26171875,-129.8828125,-4.39453125,-78.61328125,0.0
103459.6830205,-32.2265625,-59.5703125,-18.06640625,-125.0,0.0
103459.68692675,10.7421875,84.9609375,-19.04296875,12.6953125,0.0
103459.6914885,-25.390625,-12.6953125,-15.13671875,74.70703125,0.0
103459.69539475,-101.07421875,-148.92578125,-32.71484375,-41.015625,0.0
103459.699301,-45.41015625,-90.8203125,-47.8515625,-144.53125,0.0
103459.70320725,30.76171875,-18.06640625,-40.0390625,-46.875,0.0
103459.7071135,31.25,-62.98828125,-18.5546875,71.77734375,0.0
103459.71101975,-67.87109375,-169.921875,-11.23046875,3.41796875,0.0
103459.714926,-59.08203125,-126.953125,-15.13671875,-141.11328125,0.0
103459.71883225,21.97265625,30.76171875,-9.27734375,-68.84765625,0.0
103459.7227385,22.4609375,-21.97265625,-17.578125,79.58984375,0.0
103459.72664475,-58.59375,-246.09375,-42.48046875,41.50390625,0.0
103459.730551,-77.63671875,-193.84765625,-51.7578125,-104.4921875,0.0
103459.73445725,11.23046875,-0.9765625,-28.3203125,-117.1875,0.0
103459.735912041,22.94921875,-73.2421875,-10.7421875,29.78515625,0.0
103459.739818291,-30.76171875,-192.3828125,-14.6484375,43.45703125,0.0
103459.743724541,-96.6796875,-177.734375,-24.4140625,-85.44921875,0.0
103459.747630791,-24.4140625,-71.2890625,-25.390625,-129.8828125,0.0
103459.751537041,22.4609375,-68.359375,-24.90234375,10.25390625,0.0
103459.755443291,-3.41796875,-175.29296875,-29.78515625,86.42578125,0.0
103459.759349541,-82.03125,-208.0078125,-35.64453125,-12.20703125,0.0
103459.763255791,-29.78515625,-87.890625,-38.57421875,-116.2109375,0.0
103459.767162041,35.15625,-65.91796875,-37.59765625,-27.83203125,0.0
103459.771068291,20.5078125,-158.203125,-25.87890625,87.40234375,0.0
103459.774974541,-64.94140625,-83.49609375,-7.32421875,-2.9296875,0.0
103459.778880791,-70.3125,-61.03515625,-20.01953125,-161.62109375,0.0
103459.782316291,5.37109375,-71.2890625,-35.64453125,-104.4921875,0.0
103459.786222541,4.8828125,-45.8984375,-30.2734375,43.9453125,0.0
103459.790128791,-59.08203125,-89.35546875,-25.390625,-3.41796875,0.0
103459.794035041,-85.9375,-174.31640625,-39.0625,-145.01953125,0.0
103459.797941291,-0.48828125,-108.88671875,-56.640625,-134.765625,0.0
103459.801847541,22.94921875,-51.26953125,-47.8515625,16.11328125,0.0
103459.805753791,-35.15625,-72.75390625,-37.59765625,41.9921875,0.0
103459.809660041,-96.19140625,-100.5859375,-41.015625,-100.09765625,0.0
103459.813566291,-15.625,-206.54296875,-48.828125,-146.97265625,0.0
103459.817472541,19.04296875,-105.46875,-55.6640625,-16.11328125,0.0
103459.821378791,-18.5546875,15.625,-46.38671875,43.45703125,0.0
103459.825285041,-98.14453125,-148.4375,-38.0859375,-46.38671875,0.0
103459.828348041,-55.17578125,-149.90234375,-42.48046875,-171.38671875,0.0
103459.832254291,18.5546875,-12.20703125,-53.7109375,-87.40234375,0.0
103459.836160541,0.9765625,-20.99609375,-60.546875,46.38671875,0.0
103459.840066791,-87.890625,-165.52734375,-66.40625,-21.97265625,0.0
103459.843973041,-88.37890625,-185.546875,-56.640625,-162.109375,0.0
103459.847879291,14.16015625,-95.703125,-41.9921875,-104.00390625,0.0
103459.851785541,24.4140625,-17.08984375,-44.921875,49.8046875,0.0
103459.855691791,-57.12890625,-135.25390625,-37.109375,16.11328125,0.0
103459.859598041,-109.375,-244.62890625,-31.73828125,-126.953125,0.0
103459.863504291,-14.6484375,23.4375,-33.203125,-146.97265625,0.0
103459.867410541,32.2265625,75.68359375,-43.45703125,8.30078125,0.0
103459.871316791,-4.39453125,-97.16796875,-47.8515625,55.17578125,0.0
103459.872462166,-74.21875,-123.53515625,-44.921875,-69.82421875,0.0
103459.876368416,-9.765625,-4.39453125,-34.1796875,-139.16015625,0.0
103459.880274666,47.36328125,38.57421875,-8.30078125,-27.34375,0.0
103459.884180916,21.484375,-71.2890625,-0.9765625,66.40625,0.0
103459.888087166,-66.89453125,-117.67578125,-22.94921875,-7.32421875,0.0
103459.891993416,-27.83203125,-34.66796875,-49.8046875,-136.23046875,0.0
103459.895899666,44.43359375,47.8515625,-49.8046875,-75.1953125,0.0
103459.899805916,29.78515625,-65.4296875,-40.0390625,75.68359375,0.0
103459.903712166,-57.6171875,-124.51171875,-42.48046875,23.92578125,0.0
103459.907618416,-74.70703125,34.1796875,-34.66796875,-152.83203125,0.0
103459.911524666,26.85546875,60.546875,-21.97265625,-110.3515625,0.0
103459.915430916,45.8984375,27.34375,-14.6484375,63.96484375,0.0
103459.922658458,0.48828125,-5.859375,-10.25390625,59.5703125,0.0
103459.926564708,-51.7578125,-51.26953125,-16.11328125,-90.33203125,0.0
103459.930470958,16.11328125,-39.55078125,-28.3203125,-134.765625,0.0
103459.934377208,44.43359375,28.3203125,-32.2265625,-6.34765625,0.0
103459.938283458,6.34765625,16.11328125,-37.59765625,42.96875,0.0
103459.942189708,-73.2421875,-117.67578125,-49.31640625,-58.59375,0.0
103459.946095958,-23.4375,-142.578125,-50.78125,-145.5078125,0.0
103459.950002208,44.43359375,-50.29296875,-28.3203125,-41.50390625,0.0
103459.953908458,30.76171875,49.8046875,-12.6953125,65.4296875,0.0
103459.957814708,-51.7578125,-26.3671875,-15.625,-13.18359375,0.0
103459.961720958,-31.25,-104.4921875,-28.3203125,-148.4375,0.0
103459.965627208,48.33984375,-11.71875,-38.57421875,-75.68359375,0.0
103459.986131833,50.29296875,57.6171875,-47.8515625,66.89453125,0.0
103459.967689125,-33.203125,-66.89453125,-46.38671875,19.53125,0.0
103459.971595375,-68.359375,-140.13671875,-31.25,-119.140625,0.0
103459.975501625,15.625,-61.5234375,-38.57421875,-103.515625,0.0
103459.979407875,36.1328125,-7.32421875,-43.45703125,49.31640625,0.0
103459.983314125,-15.13671875,-66.89453125,-45.41015625,50.78125,0.0
103459.987220375,-88.37890625,-229.4921875,-44.921875,-73.2421875,0.0
103459.991126625,-3.41796875,-94.23828125,-37.59765625,-111.328125,0.0
103459.995032875,44.43359375,131.34765625,-29.296875,12.20703125,0.0
103459.998939125,11.23046875,0.48828125,-18.06640625,84.9609375,0.0
103460.002845375,-63.96484375,-112.79296875,-15.625,-20.5078125,0.0
103460.006751625,-21.97265625,-31.73828125,-23.4375,-133.30078125,0.0
103460.008553083,49.31640625,50.78125,-37.109375,-32.2265625,0.0
103460.012459333,40.52734375,-49.8046875,-36.1328125,87.890625,0.0
103460.016365583,-54.19921875,-168.9453125,-36.62109375,9.27734375,0.0
103460.020271833,-56.15234375,-95.21484375,-48.33984375,-134.27734375,0.0
103460.024178083,32.71484375,-7.32421875,-38.0859375,-78.61328125,0.0
103460.028084333,44.921875,-101.5625,-29.296875,89.84375,0.0
103460.031990583,-42.96875,-240.72265625,-40.52734375,53.7109375,0.0
103460.035896833,-92.7734375,-143.06640625,-41.50390625,-119.62890625,0.0
103460.039803083,-2.44140625,9.765625,-34.1796875,-125.48828125,0.0
103460.043709333,29.296875,-11.23046875,-31.73828125,36.62109375,0.0
103460.047615583,-7.32421875,-101.5625,-39.0625,65.4296875,0.0
103460.051521833,-83.984375,-123.53515625,-43.45703125,-61.5234375,0.0
103460.052831208,-10.7421875,-61.03515625,-51.7578125,-124.51171875,0.0
103460.056737458,47.8515625,-31.25,-67.3828125,8.30078125,0.0
103460.060643708,8.7890625,-56.640625,-62.01171875,89.84375,0.0
103460.064549958,-82.51953125,-135.7421875,-39.0625,-6.34765625,0.0
103460.068456208,-46.38671875,-120.60546875,-33.69140625,-136.23046875,0.0
103460.072362458,16.6015625,-69.82421875,-32.71484375,-61.03515625,0.0
103460.076268708,2.9296875,-37.59765625,-29.296875,67.87109375,0.0
103460.080174958,-76.66015625,-33.203125,-36.1328125,0.0,0.0
103460.084081208,-72.265625,-94.7265625,-40.0390625,-126.46484375,0.0
103460.087987458,25.87890625,-100.5859375,-41.50390625,-63.96484375,0.0
103460.091893708,45.8984375,-43.9453125,-38.57421875,81.0546875,0.0
103460.095799958,-19.04296875,-36.1328125,-35.64453125,50.29296875,0.0
103460.09505175,-71.2890625,-132.32421875,-59.08203125,-82.03125,0.0
103460.098958,11.23046875,-95.21484375,-64.453125,-103.515625,0.0
103460.10286425,26.85546875,1.46484375,-36.1328125,35.64453125,0.0
103460.1067705,-31.25,-52.734375,-35.64453125,58.59375,0.0
103460.11067675,-120.60546875,-193.359375,-47.8515625,-69.82421875,0.0
103460.114583,-53.22265625,-180.6640625,-38.57421875,-137.20703125,0.0
103460.11848925,23.4375,-26.3671875,-16.11328125,-16.11328125,0.0
103460.1223955,10.7421875,-17.578125,-25.87890625,77.63671875,0.0
103460.12630175,-82.51953125,-212.40234375,-55.6640625,-12.6953125,0.0
103460.130208,-64.453125,-227.5390625,-58.10546875,-133.30078125,0.0
103460.13411425,30.2734375,39.0625,-41.015625,-46.38671875,0.0
103460.1380205,33.203125,29.78515625,-26.85546875,88.37890625,0.0
103460.140497166,-58.10546875,-190.91796875,-28.80859375,17.578125,0.0
103460.144403416,-75.68359375,-160.15625,-52.734375,-134.27734375,0.0
103460.148309666,25.87890625,26.3671875,-58.10546875,-94.23828125,0.0
103460.152215916,43.9453125,-21.97265625,-52.24609375,68.84765625,0.0
103460.156122166,-27.83203125,-128.41796875,-65.4296875,47.36328125,0.0
103460.160028416,-94.7265625,-145.5078125,-67.3828125,-98.14453125,0.0
103460.163934666,-8.30078125,-3.90625,-45.8984375,-125.9765625,0.0
103460.167840916,40.52734375,97.65625,-27.34375,18.5546875,0.0
103460.171747166,-4.8828125,-123.046875,-34.1796875,76.66015625,0.0
103460.175653416,-100.09765625,-155.76171875,-24.4140625,-44.43359375,0.0
103460.179559666,-53.22265625,73.2421875,-19.53125,-144.04296875,0.0
103460.183465916,24.4140625,83.0078125,-25.390625,-11.71875,0.0
103460.21757375,24.4140625,-3.41796875,-41.9921875,101.5625,0.0
103460.22148,-68.359375,-41.9921875,-67.3828125,0.9765625,0.0
103460.22538625,-41.9921875,-4.39453125,-56.15234375,-135.7421875,0.0
103460.219305083,55.6640625,9.27734375,-30.76171875,-50.78125,0.0
103460.223211333,49.31640625,3.90625,-17.08984375,100.5859375,0.0
103460.227117583,-34.66796875,-71.2890625,-26.85546875,47.36328125,0.0
103460.231023833,-76.66015625,-46.875,-44.921875,-101.5625,0.0
103460.234930083,16.11328125,0.9765625,-48.33984375,-84.47265625,0.0
103460.238836333,44.43359375,-52.24609375,-35.15625,81.0546875,0.0
103460.242742583,-21.484375,32.71484375,-24.4140625,77.63671875,0.0
103460.246648833,-96.19140625,10.7421875,-30.2734375,-78.61328125,0.0
103460.250555083,-9.765625,-5.37109375,-36.62109375,-123.046875,0.0
103460.251497666,63.96484375,64.453125,-37.109375,36.62109375,0.0
103460.255403916,28.3203125,57.6171875,-36.1328125,99.609375,0.0
103460.259310166,-69.82421875,-50.78125,-39.0625,-14.16015625,0.0
103460.263216416,-18.5546875,-63.4765625,-32.71484375,-108.3984375,0.0
103460.267122666,48.828125,31.25,-31.25,-16.6015625,0.0
103460.271028916,20.5078125,22.4609375,-22.4609375,95.21484375,0.0
103460.274935166,-71.77734375,-73.73046875,-12.20703125,24.4140625,0.0
103460.278841416,-59.5703125,-164.0625,-20.01953125,-97.16796875,0.0
103460.282747666,34.1796875,-8.7890625,-37.59765625,-41.50390625,0.0
103460.286653916,55.17578125,165.52734375,-35.15625,104.00390625,0.0
103460.290560166,-15.625,-18.06640625,-26.85546875,80.56640625,0.0
103460.294466416,-66.89453125,-83.0078125,-56.15234375,-63.4765625,0.0
103460.312419666,30.76171875,82.03125,-58.10546875,-68.359375,0.0
103460.316325916,58.10546875,144.04296875,-39.55078125,63.96484375,0.0
103460.302392625,-19.04296875,-8.30078125,-38.0859375,62.5,0.0
103460.306298875,-110.3515625,-90.33203125,-32.2265625,-64.453125,0.0
103460.310205125,-28.80859375,36.1328125,-21.97265625,-112.3046875,0.0
103460.314111375,41.9921875,71.77734375,-12.20703125,32.71484375,0.0
103460.318017625,20.5078125,-34.1796875,-30.2734375,129.39453125,0.0
103460.321923875,-71.77734375,-144.04296875,-56.15234375,34.1796875,0.0
103460.325830125,-35.64453125,4.39453125,-49.31640625,-89.84375,0.0
103460.329736375,54.19921875,149.90234375,-34.1796875,-4.8828125,0.0
103460.333642625,51.26953125,68.359375,-25.390625,128.90625,0.0
103460.337548875,-49.31640625,-46.38671875,-24.90234375,62.98828125,0.0
103460.339734583,-53.7109375,3.41796875,-24.90234375,-92.7734375,0.0
103460.343640833,48.828125,76.66015625,-34.66796875,-52.734375,0.0
103460.347547083,67.87109375,42.96875,-44.43359375,110.3515625,0.0
103460.351453333,-17.08984375,-69.82421875,-35.15625,82.03125,0.0
103460.355359583,-90.33203125,-55.17578125,-22.94921875,-66.40625,0.0
103460.359265833,16.6015625,65.4296875,-3.41796875,-55.6640625,0.0
103460.363172083,63.4765625,4.39453125,-15.13671875,106.93359375,0.0
103460.367078333,20.5078125,-12.6953125,-34.1796875,115.72265625,0.0
103460.370984583,-66.89453125,78.61328125,-25.390625,-24.4140625,0.0
103460.374890833,-17.578125,62.98828125,-43.9453125,-96.19140625,0.0
103460.378797083,42.96875,70.3125,-55.6640625,11.23046875,0.0
103460.382703333,21.484375,25.87890625,-35.15625,94.7265625,0.0
103460.386072458,-79.1015625,-26.3671875,-27.34375,8.7890625,0.0
103460.389978708,-56.640625,-19.53125,-41.9921875,-98.6328125,0.0
103460.393884958,34.66796875,31.73828125,-30.76171875,-19.53125,0.0
103460.397791208,45.41015625,64.94140625,-14.16015625,108.3984375,0.0
103460.401697458,-51.7578125,-33.203125,-34.66796875,42.96875,0.0
103460.405603708,-83.984375,-153.3203125,-52.734375,-106.93359375,0.0
103460.409509958,22.94921875,-121.09375,-48.33984375,-66.89453125,0.0
103460.413416208,42.48046875,71.77734375,-37.59765625,78.125,0.0
103460.417322458,-27.34375,40.52734375,-42.96875,53.7109375,0.0
103460.421228708,-90.8203125,-112.3046875,-53.7109375,-72.265625,0.0
103460.425134958,-6.8359375,-26.3671875,-54.19921875,-94.7265625,0.0
103460.429041208,37.59765625,83.49609375,-33.203125,42.96875,0.0
103460.428512125,1.46484375,-21.484375,-36.62109375,86.42578125,0.0
103460.432418375,-81.0546875,-178.7109375,-49.31640625,-18.5546875,0.0
103460.436324625,-24.4140625,-95.703125,-38.0859375,-95.21484375,0.0
103460.440230875,52.24609375,33.69140625,-36.1328125,18.5546875,0.0
103460.444137125,41.50390625,-22.94921875,-44.921875,118.1640625,0.0
103460.448043375,-52.734375,-172.36328125,-63.4765625,23.92578125,0.0
103460.451949625,-45.8984375,-90.8203125,-70.80078125,-119.140625,0.0
103460.455855875,32.71484375,119.62890625,-42.48046875,-63.4765625,0.0
103460.459762125,31.73828125,38.57421875,-24.4140625,97.16796875,0.0
103460.463668375,-54.19921875,-141.11328125,-33.203125,58.59375,0.0
103460.467574625,-90.8203125,-107.421875,-34.1796875,-92.28515625,0.0
103460.471480875,19.53125,42.96875,-41.50390625,-65.91796875,0.0
103460.500688833,44.43359375,23.4375,-54.6875,84.47265625,0.0
103460.504595083,-7.32421875,-90.33203125,-70.3125,72.265625,0.0
103460.508501333,-64.94140625,-97.16796875,-73.2421875,-61.5234375,0.0
103460.512407583,-2.44140625,-0.48828125,-47.8515625,-96.6796875,0.0
103460.516313833,35.15625,-0.48828125,-36.62109375,40.0390625,0.0
103460.520220083,3.41796875,-93.75,-34.1796875,109.86328125,0.0
103460.524126333,-80.56640625,-128.41796875,-35.15625,0.48828125,0.0
103460.528032583,-25.390625,-2.44140625,-36.62109375,-108.3984375,0.0
103460.531938833,51.26953125,-19.53125,-45.41015625,-3.41796875,0.0
103460.535845083,39.0625,-121.58203125,-62.98828125,109.375,0.0
103460.539751333,-58.59375,-31.73828125,-62.98828125,20.5078125,0.0
103460.543657583,-66.40625,-10.7421875,-70.3125,-120.1171875,0.0
103460.521901083,34.1796875,-0.9765625,-77.63671875,-62.5,0.0
103460.525807333,47.8515625,11.23046875,-63.4765625,94.7265625,0.0
103460.529713583,-27.83203125,-55.6640625,-58.59375,56.640625,0.0
103460.533619833,-76.171875,-143.5546875,-55.17578125,-91.796875,0.0
103460.537526083,17.08984375,-64.94140625,-41.9921875,-81.54296875,0.0
103460.541432333,61.03515625,6.8359375,-39.0625,78.61328125,0.0
103460.545338583,8.7890625,-36.62109375,-50.29296875,99.609375,0.0
103460.549244833,-78.125,-89.35546875,-56.15234375,-43.9453125,0.0
103460.553151083,-9.27734375,-119.140625,-57.12890625,-104.4921875,0.0
103460.557057333,53.22265625,25.87890625,-54.19921875,32.71484375,0.0
103460.560963583,25.87890625,100.5859375,-51.7578125,112.3046875,0.0
103460.564869833,-63.4765625,-83.984375,-55.17578125,7.8125,0.0
103460.59638825,-31.73828125,-72.265625,-48.33984375,-115.234375,0.0
103460.6002945,46.38671875,75.68359375,-34.1796875,-18.06640625,0.0
103460.60420075,56.640625,52.24609375,-31.73828125,113.28125,0.0
103460.608107,-36.1328125,-109.375,-46.875,40.0390625,0.0
103460.61201325,-60.546875,-137.6953125,-43.9453125,-99.12109375,0.0
103460.6159195,36.1328125,-31.73828125,-32.2265625,-43.45703125,0.0
103460.61982575,55.17578125,45.41015625,-40.0390625,119.140625,0.0
103460.623732,-15.625,-85.44921875,-48.828125,82.51953125,0.0
103460.62763825,-81.54296875,-213.8671875,-43.45703125,-71.2890625,0.0
103460.6315445,8.7890625,-8.30078125,-29.78515625,-78.61328125,0.0
103460.63545075,60.05859375,62.98828125,-24.90234375,71.77734375,0.0
103460.639357,28.80859375,-42.48046875,-20.5078125,106.4453125,0.0
103460.620068166,-59.08203125,-105.95703125,-32.2265625,-12.20703125,0.0
103460.623974416,1.46484375,-5.37109375,-45.8984375,-83.49609375,0.0
103460.627880666,72.75390625,50.78125,-34.1796875,44.43359375,0.0
103460.631786916,53.22265625,-59.08203125,-18.5546875,142.578125,0.0
103460.635693166,-36.1328125,-151.3671875,-16.11328125,48.828125,0.0
103460.639599416,-12.6953125,-86.9140625,-25.87890625,-76.171875,0.0
103460.643505666,82.03125,10.25390625,-24.4140625,1.953125,0.0
103460.647411916,77.63671875,-89.84375,-24.4140625,137.20703125,0.0
103460.651318166,-21.484375,-137.20703125,-29.78515625,68.359375,0.0
103460.655224416,-49.8046875,-11.71875,-29.296875,-93.75,0.0
103460.659130666,42.48046875,12.6953125,-29.78515625,-78.61328125,0.0
103460.663036916,51.7578125,-0.9765625,-31.25,83.49609375,0.0
103460.669158083,-20.99609375,-70.80078125,-30.76171875,70.3125,0.0
103460.673064333,-82.03125,-99.12109375,-17.08984375,-83.0078125,0.0
103460.676970583,5.859375,-17.578125,-35.15625,-97.16796875,0.0
103460.680876833,61.03515625,23.4375,-57.12890625,53.22265625,0.0
103460.684783083,32.71484375,-22.94921875,-41.50390625,113.76953125,0.0
103460.688689333,-64.453125,-125.9765625,-51.26953125,-2.44140625,0.0
103460.692595583,-11.71875,-105.46875,-56.15234375,-99.609375,0.0
103460.696501833,63.96484375,-49.31640625,-38.57421875,16.11328125,0.0
103460.700408083,35.64453125,53.22265625,-24.90234375,113.76953125,0.0
103460.704314333,-55.6640625,-19.04296875,-21.97265625,20.01953125,0.0
103460.708220583,-39.0625,-88.37890625,-27.83203125,-112.3046875,0.0
103460.712126833,45.41015625,21.484375,-36.1328125,-30.76171875,0.0
103460.715939916,52.24609375,57.6171875,-34.66796875,112.79296875,0.0
103460.719846166,-28.3203125,-66.40625,-41.9921875,37.109375,0.0
103460.723752416,-72.75390625,-163.0859375,-69.82421875,-100.09765625,0.0
103460.727658666,36.1328125,-90.8203125,-66.89453125,-66.40625,0.0
103460.731564916,68.359375,-23.4375,-37.59765625,74.21875,0.0
103460.735471166,-1.46484375,-84.9609375,-20.5078125,71.77734375,0.0
103460.739377416,-85.44921875,-249.0234375,-21.484375,-62.5,0.0
103460.743283666,-12.20703125,-135.25390625,-30.2734375,-107.91015625,0.0
103460.747189916,58.59375,109.86328125,-39.0625,28.80859375,0.0
103460.751096166,21.97265625,-23.92578125,-38.0859375,93.75,0.0
103460.755002416,-87.890625,-164.0625,-42.96875,-20.5078125,0.0
103460.758908666,-37.109375,-64.453125,-37.59765625,-120.60546875,0.0
103460.762021958,48.828125,28.3203125,-28.80859375,-15.13671875,0.0
103460.765928208,46.875,-48.828125,-36.62109375,107.91015625,0.0
103460.769834458,-44.43359375,-165.0390625,-48.828125,32.71484375,0.0
103460.773740708,-56.15234375,-99.12109375,-56.15234375,-124.0234375,0.0
103460.777646958,25.390625,-9.27734375,-45.41015625,-73.2421875,0.0
103460.781553208,33.203125,-108.3984375,-41.9921875,97.65625,0.0
103460.785459458,-42.48046875,-246.58203125,-41.015625,63.4765625,0.0
103460.789365708,-93.26171875,-137.6953125,-33.203125,-103.515625,0.0
103460.793271958,10.7421875,22.4609375,-39.0625,-97.16796875,0.0
103460.797178208,57.6171875,-49.8046875,-59.5703125,67.87109375,0.0
103460.801084458,3.90625,-111.328125,-72.75390625,77.1484375,0.0
103460.804990708,-88.37890625,-70.3125,-58.59375,-49.31640625,0.0
103460.806219125,-25.87890625,-41.9921875,-36.62109375,-109.375,0.0
103460.810125375,40.0390625,-42.48046875,-38.0859375,13.18359375,0.0
103460.814031625,9.27734375,-82.03125,-40.0390625,77.1484375,0.0
103460.817937875,-87.890625,-157.71484375,-35.15625,-38.0859375,0.0
103460.821844125,-42.96875,-116.69921875,-26.85546875,-129.39453125,0.0
103460.825750375,52.24609375,-121.58203125,-37.109375,-6.8359375,0.0
103460.829656625,55.17578125,-101.07421875,-51.7578125,118.65234375,0.0
103460.833562875,-25.87890625,-30.76171875,-37.109375,26.3671875,0.0
103460.837469125,-39.55078125,-100.5859375,-26.3671875,-115.72265625,0.0
103460.841375375,46.875,-22.4609375,-18.5546875,-63.4765625,0.0
103460.845281625,60.05859375,48.33984375,-9.27734375,87.890625,0.0
103460.849187875,-14.16015625,-33.69140625,-19.04296875,55.6640625,0.0
103460.853557958,-74.70703125,-115.72265625,-35.15625,-89.84375,0.0
103460.857464208,12.6953125,-37.109375,-41.9921875,-103.02734375,0.0
103460.861370458,52.24609375,70.3125,-28.80859375,50.29296875,0.0
103460.865276708,2.9296875,9.765625,-22.4609375,85.44921875,0.0
103460.869182958,-81.54296875,-124.0234375,-42.48046875,-27.34375,0.0
103460.873089208,-16.6015625,-122.55859375,-39.0625,-106.4453125,0.0
103460.876995458,50.78125,41.50390625,-24.90234375,2.9296875,0.0
103460.880901708,38.57421875,71.2890625,-16.6015625,102.05078125,0.0
103460.884807958,-64.94140625,-135.25390625,-26.85546875,11.71875,0.0
103460.888714208,-44.921875,-150.87890625,-44.921875,-109.375,0.0
103460.892620458,40.0390625,77.1484375,-38.0859375,-34.1796875,0.0
103460.896526708,41.9921875,20.5078125,-29.296875,103.515625,0.0
103460.896198291,-26.3671875,-121.09375,-29.78515625,48.828125,0.0
103460.900104541,-63.4765625,-66.89453125,-45.8984375,-98.14453125,0.0
103460.904010791,31.25,51.7578125,-44.921875,-66.89453125,0.0
103460.907917041,64.94140625,-6.8359375,-23.92578125,92.28515625,0.0
103460.911823291,-11.23046875,-112.79296875,-20.99609375,64.94140625,0.0
103460.915729541,-86.9140625,-137.6953125,-37.109375,-91.796875,0.0
103460.919635791,9.27734375,-14.16015625,-44.43359375,-117.67578125,0.0
103460.923542041,65.4296875,85.44921875,-39.0625,38.57421875,0.0
103460.927448291,26.85546875,-145.01953125,-40.0390625,105.46875,0.0
103460.931354541,-63.96484375,-201.171875,-45.8984375,-6.34765625,0.0
103460.935260791,-11.23046875,11.71875,-42.48046875,-118.65234375,0.0
103460.939167041,52.24609375,3.90625,-41.50390625,-14.6484375,0.0
103460.94149925,33.69140625,-72.75390625,-31.25,107.91015625,0.0
103460.9454055,-61.03515625,-150.390625,-25.87890625,29.296875,0.0
103460.94931175,-61.03515625,-117.1875,-29.296875,-111.81640625,0.0
103460.953218,38.0859375,-23.92578125,-25.87890625,-45.41015625,0.0
103460.95712425,52.24609375,-47.8515625,-32.2265625,113.28125,0.0
103460.9610305,-18.5546875,-143.5546875,-43.9453125,78.125,0.0
103460.96493675,-59.08203125,-153.3203125,-43.9453125,-82.03125,0.0
103460.968843,16.11328125,-92.28515625,-43.9453125,-85.9375,0.0
103460.97274925,41.9921875,-104.4921875,-38.0859375,77.63671875,0.0
103460.9766555,-18.06640625,-35.15625,-28.3203125,68.359375,0.0
103460.98056175,-101.07421875,-71.77734375,-36.1328125,-75.1953125,0.0
103460.984468,-20.99609375,-92.28515625,-46.875,-113.28125,0.0
103460.989024958,42.96875,-9.765625,-51.26953125,24.90234375,0.0
103460.992931208,5.37109375,-27.34375,-55.17578125,90.33203125,0.0
103460.996837458,-88.8671875,-142.08984375,-59.5703125,-14.6484375,0.0
103461.000743708,-36.1328125,-168.45703125,-48.828125,-102.5390625,0.0
103461.004649958,36.62109375,-83.984375,-26.3671875,-4.8828125,0.0
103461.008556208,27.34375,-71.2890625,-15.625,101.5625,0.0
103461.012462458,-53.22265625,-146.97265625,-25.390625,42.48046875,0.0
103461.016368708,-33.203125,-239.74609375,-32.2265625,-75.1953125,0.0
103461.020274958,63.4765625,-107.91015625,-33.203125,-24.90234375,0.0
103461.024181208,63.4765625,69.3359375,-39.0625,98.6328125,0.0
103461.028087458,-15.625,-84.47265625,-47.36328125,48.33984375,0.0
103461.031993708,-66.89453125,-159.66796875,-51.7578125,-93.75,0.0
103461.034818208,25.87890625,-37.59765625,-30.76171875,-82.03125,0.0
103461.038724458,59.5703125,32.71484375,-2.9296875,73.2421875,0.0
103461.042630708,12.6953125,-80.078125,0.48828125,94.23828125,0.0
103461.046536958,-70.3125,-165.52734375,-18.06640625,-35.64453125,0.0
103461.050443208,4.39453125,-66.40625,-26.85546875,-106.4453125,0.0
103461.054349458,73.2421875,-36.1328125,-31.25,28.80859375,0.0
103461.058255708,44.43359375,-139.16015625,-43.9453125,123.53515625,0.0
103461.062161958,-68.84765625,-244.62890625,-46.38671875,16.6015625,0.0
103461.066068208,-42.48046875,-45.41015625,-40.0390625,-120.60546875,0.0
103461.069974458,55.6640625,96.19140625,-35.15625,-38.57421875,0.0
103461.073880708,51.26953125,-30.2734375,-43.9453125,104.4921875,0.0
103461.077786958,-47.8515625,-127.44140625,-54.6875,32.2265625,0.0
103461.125341791,-69.82421875,-59.08203125,-44.921875,-135.7421875,0.0
103461.108912416,26.85546875,31.25,-27.34375,-84.9609375,0.0
103461.112818666,42.48046875,-8.30078125,-19.53125,86.9140625,0.0
103461.116724916,-36.1328125,-139.16015625,-28.3203125,59.5703125,0.0
103461.120631166,-90.8203125,-142.578125,-32.71484375,-95.703125,0.0
103461.124537416,18.06640625,-26.3671875,-34.66796875,-107.421875,0.0
103461.128443666,61.03515625,-104.00390625,-44.43359375,53.22265625,0.0
103461.132349916,5.859375,-124.0234375,-46.875,81.54296875,0.0
103461.136256166,-78.125,-24.4140625,-51.26953125,-38.0859375,0.0
103461.140162416,-9.27734375,-42.48046875,-61.5234375,-101.5625,0.0
103461.144068666,57.6171875,2.44140625,-64.94140625,9.27734375,0.0
103461.147974916,25.87890625,4.8828125,-53.7109375,94.23828125,0.0
103461.170251166,-70.80078125,-71.2890625,-32.2265625,5.37109375,0.0
103461.155990333,-40.0390625,-91.30859375,-33.203125,-105.95703125,0.0
103461.159896583,58.59375,-31.73828125,-40.52734375,-30.76171875,0.0
103461.163802833,74.21875,29.296875,-38.0859375,106.4453125,0.0
103461.167709083,-20.99609375,-68.359375,-47.36328125,41.50390625,0.0
103461.171615333,-66.89453125,-188.96484375,-55.6640625,-108.3984375,0.0
103461.175521583,35.64453125,-125.9765625,-51.7578125,-63.96484375,0.0
103461.179427833,57.6171875,36.62109375,-55.17578125,77.1484375,0.0
103461.183334083,-18.06640625,-9.765625,-76.66015625,59.5703125,0.0
103461.187240333,-91.796875,-157.2265625,-87.40234375,-69.3359375,0.0
103461.191146583,-4.39453125,-47.36328125,-67.3828125,-106.4453125,0.0
103461.195052833,44.921875,104.00390625,-51.26953125,25.390625,0.0
103461.172306333,0.48828125,-25.390625,-44.921875,84.9609375,0.0
103461.176212583,-82.51953125,-116.2109375,-38.57421875,-16.11328125,0.0
103461.180118833,-14.6484375,-5.37109375,-30.76171875,-107.91015625,0.0
103461.184025083,59.08203125,39.55078125,-36.62109375,3.90625,0.0
103461.187931333,33.203125,4.39453125,-39.55078125,114.2578125,0.0
103461.191837583,-66.89453125,-126.953125,-39.55078125,23.4375,0.0
103461.195743833,-54.19921875,-69.82421875,-49.8046875,-123.046875,0.0
103461.199650083,34.66796875,130.37109375,-46.875,-59.08203125,0.0
103461.203556333,46.875,73.73046875,-29.78515625,97.16796875,0.0
103461.207462583,-27.34375,-101.5625,-38.0859375,50.78125,0.0
103461.211368833,-70.3125,-62.98828125,-44.921875,-92.28515625,0.0
103461.215275083,31.25,88.37890625,-30.76171875,-69.82421875,0.0
103461.26085,63.96484375,36.62109375,-29.78515625,73.2421875,0.0
103461.24681125,0.0,-70.3125,-37.109375,66.40625,0.0
103461.2507175,-84.47265625,-98.6328125,-41.50390625,-70.3125,0.0
103461.25462375,-11.71875,-10.7421875,-38.57421875,-106.4453125,0.0
103461.25853,40.52734375,39.0625,-53.22265625,43.9453125,0.0
103461.26243625,2.44140625,-78.61328125,-59.08203125,109.375,0.0
103461.2663425,-88.8671875,-110.83984375,-37.109375,-14.16015625,0.0
103461.27024875,-42.96875,18.5546875,-23.4375,-145.01953125,0.0
103461.274155,38.0859375,7.8125,-35.15625,-38.57421875,0.0
103461.27806125,31.73828125,-86.42578125,-48.33984375,109.86328125,0.0
103461.2819675,-62.01171875,-29.296875,-50.78125,26.3671875,0.0
103461.28587375,-68.84765625,-32.71484375,-63.4765625,-117.67578125,0.0
103461.263272166,29.296875,-30.76171875,-66.89453125,-68.84765625,0.0
103461.267178416,40.0390625,9.27734375,-47.8515625,72.75390625,0.0
103461.271084666,-36.62109375,-31.73828125,-31.25,39.55078125,0.0
103461.274990916,-87.890625,-125.9765625,-32.71484375,-98.6328125,0.0
103461.278897166,13.18359375,-66.40625,-36.1328125,-100.5859375,0.0
103461.282803416,51.26953125,-14.16015625,-44.921875,42.48046875,0.0
103461.286709666,-7.32421875,-85.44921875,-59.08203125,63.4765625,0.0
103461.290615916,-89.35546875,-118.1640625,-65.4296875,-61.03515625,0.0
103461.294522166,-13.18359375,-142.578125,-74.70703125,-110.83984375,0.0
103461.298428416,44.43359375,-42.48046875,-66.89453125,7.8125,0.0
103461.302334666,10.7421875,62.98828125,-46.38671875,70.80078125,0.0
103461.306240916,-87.40234375,-90.8203125,-52.24609375,-21.97265625,0.0
103461.308587333,-56.640625,-98.14453125,-52.24609375,-145.01953125,0.0
103461.312493583,33.203125,39.0625,-45.8984375,-61.5234375,0.0
103461.316399833,35.15625,15.625,-49.8046875,84.47265625,0.0
103461.320306083,-49.8046875,-144.53125,-53.7109375,22.4609375,0.0
103461.324212333,-69.3359375,-162.59765625,-43.9453125,-124.51171875,0.0
103461.328118583,14.6484375,-61.03515625,-51.7578125,-87.890625,0.0
103461.332024833,19.53125,7.8125,-63.4765625,60.05859375,0.0
103461.335931083,-51.7578125,-112.79296875,-46.38671875,42.48046875,0.0
103461.339837333,-112.3046875,-225.09765625,-42.96875,-90.8203125,0.0
103461.343743583,-19.04296875,20.01953125,-38.57421875,-105.95703125,0.0
103461.347649833,35.64453125,93.26171875,-33.69140625,54.19921875,0.0
103461.351556083,-4.39453125,-69.3359375,-42.96875,102.05078125,0.0
103461.379249375,-84.9609375,-130.859375,-59.08203125,-14.6484375,0.0
103461.383155625,-21.484375,-7.8125,-54.19921875,-101.07421875,0.0
103461.387061875,50.78125,46.875,-47.36328125,-1.46484375,0.0
103461.390968125,40.0390625,-62.98828125,-52.734375,96.6796875,0.0
103461.394874375,-57.6171875,-139.16015625,-48.33984375,13.671875,0.0
103461.398780625,-41.015625,-106.4453125,-37.59765625,-115.72265625,0.0
103461.402686875,54.6875,2.44140625,-31.25,-47.36328125,0.0
103461.406593125,61.5234375,-92.28515625,-36.1328125,99.12109375,0.0
103461.410499375,-38.57421875,-164.55078125,-41.9921875,27.34375,0.0
103461.414405625,-85.9375,-19.04296875,-51.7578125,-131.8359375,0.0
103461.418311875,12.20703125,-10.25390625,-49.8046875,-84.9609375,0.0
103461.422218125,39.0625,-20.01953125,-46.875,69.82421875,0.0
103461.399716583,-17.08984375,-48.33984375,-52.24609375,58.59375,0.0
103461.403622833,-88.8671875,-88.8671875,-64.94140625,-81.0546875,0.0
103461.407529083,-9.27734375,-57.6171875,-79.58984375,-106.93359375,0.0
103461.411435333,41.015625,-14.6484375,-68.359375,30.76171875,0.0
103461.415341583,2.44140625,-31.25,-59.5703125,76.66015625,0.0
103461.419247833,-84.9609375,-145.01953125,-62.5,-30.76171875,0.0
103461.423154083,-26.3671875,-141.6015625,-45.41015625,-120.60546875,0.0
103461.427060333,55.17578125,-71.77734375,-35.15625,-7.8125,0.0
103461.430966583,34.66796875,15.625,-40.52734375,106.93359375,0.0
103461.434872833,-62.5,-39.55078125,-41.50390625,15.13671875,0.0
103461.438779083,-42.48046875,-127.9296875,-42.96875,-120.60546875,0.0
103461.442685333,48.828125,-38.57421875,-48.33984375,-58.10546875,0.0
103461.484910541,47.8515625,19.04296875,-46.875,92.28515625,0.0
103461.470899625,-34.66796875,-121.58203125,-40.52734375,59.5703125,0.0
103461.474805875,-79.58984375,-173.33984375,-37.109375,-90.33203125,0.0
103461.478712125,12.20703125,-67.87109375,-37.109375,-68.84765625,0.0
103461.482618375,38.0859375,-21.97265625,-34.1796875,91.796875,0.0
103461.486524625,-22.4609375,-90.8203125,-30.2734375,91.796875,0.0
103461.490430875,-99.12109375,-259.765625,-41.015625,-43.9453125,0.0
103461.494337125,-20.99609375,-140.13671875,-57.6171875,-100.5859375,0.0
103461.498243375,44.43359375,90.8203125,-52.24609375,21.97265625,0.0
103461.502149625,20.99609375,-34.66796875,-45.8984375,96.6796875,0.0
103461.506055875,-70.80078125,-153.80859375,-46.875,1.46484375,0.0
103461.509962125,-27.34375,-48.828125,-36.1328125,-114.2578125,0.0
103461.511641,56.640625,50.78125,-22.4609375,-25.390625,0.0
103461.51554725,45.41015625,-38.0859375,-40.0390625,110.3515625,0.0
103461.5194535,-53.7109375,-153.3203125,-55.17578125,34.66796875,0.0
103461.52335975,-54.19921875,-111.81640625,-50.78125,-112.79296875,0.0
103461.527266,50.29296875,-37.109375,-53.7109375,-53.7109375,0.0
103461.53117225,65.91796875,-66.40625,-51.26953125,107.421875,0.0
103461.5350785,-9.27734375,-174.8046875,-47.8515625,83.49609375,0.0
103461.53898475,-60.546875,-70.80078125,-39.55078125,-74.21875,0.0
103461.542891,31.73828125,63.96484375,-28.80859375,-71.77734375,0.0
103461.54679725,65.91796875,17.578125,-23.92578125,86.42578125,0.0
103461.5507035,19.04296875,-57.6171875,-27.34375,103.02734375,0.0
103461.55460975,-57.12890625,-64.94140625,-22.94921875,-21.484375,0.0
103461.559081208,9.27734375,-20.5078125,-16.6015625,-94.7265625,0.0
103461.562987458,73.2421875,-6.34765625,-35.15625,28.80859375,0.0
103461.566893708,43.45703125,-17.08984375,-44.43359375,118.65234375,0.0
103461.570799958,-56.640625,-107.421875,-31.25,18.5546875,0.0
103461.574706208,-23.92578125,-90.8203125,-33.203125,-105.95703125,0.0
103461.578612458,61.5234375,-50.78125,-34.1796875,-4.8828125,0.0
103461.582518708,60.546875,-54.19921875,-21.97265625,144.53125,0.0
103461.586424958,-29.296875,-37.59765625,-31.25,60.05859375,0.0
103461.590331208,-51.26953125,-53.22265625,-31.73828125,-107.421875,0.0
103461.594237458,47.36328125,-30.2734375,-14.6484375,-58.10546875,0.0
103461.598143708,75.68359375,43.9453125,-1.46484375,112.79296875,0.0
103461.602049958,8.30078125,9.765625,-8.30078125,80.078125,0.0
103461.601467,-66.40625,-100.09765625,-31.25,-61.5234375,0.0
103461.60537325,26.85546875,-33.69140625,-35.64453125,-64.94140625,0.0
103461.6092795,71.77734375,60.05859375,-22.94921875,67.3828125,0.0
103461.61318575,25.87890625,-17.08984375,-22.4609375,95.21484375,0.0
103461.617092,-62.98828125,-140.625,-16.11328125,-19.53125,0.0
103461.62099825,-5.37109375,-115.72265625,-10.25390625,-91.796875,0.0
103461.6249045,70.3125,17.578125,-4.8828125,24.4140625,0.0
103461.62881075,50.29296875,55.17578125,-8.30078125,119.140625,0.0
103461.632717,-56.15234375,-135.25390625,-33.203125,29.296875,0.0
103461.63662325,-39.0625,-220.703125,-42.96875,-94.23828125,0.0
103461.6405295,60.05859375,45.8984375,-34.66796875,-26.85546875,0.0
103461.64443575,61.03515625,92.28515625,-23.92578125,98.6328125,0.0
103461.646626166,-35.15625,-111.81640625,-23.92578125,44.43359375,0.0
103461.650532416,-64.453125,-117.1875,-27.83203125,-94.7265625,0.0
103461.654438666,38.0859375,27.34375,-36.1328125,-69.82421875,0.0
103461.658344916,61.03515625,-11.23046875,-41.015625,81.0546875,0.0
103461.662251166,2.44140625,-132.32421875,-27.83203125,79.1015625,0.0
103461.666157416,-61.5234375,-149.4140625,-11.23046875,-47.8515625,0.0
103461.670063666,24.4140625,-24.90234375,-18.5546875,-87.890625,0.0
103461.673969916,57.6171875,91.796875,-41.9921875,34.1796875,0.0
103461.677876166,13.18359375,-120.1171875,-41.9921875,113.76953125,0.0
103461.681782416,-68.359375,-184.08203125,-25.390625,7.8125,0.0
103461.685688666,-20.5078125,43.45703125,-15.13671875,-116.69921875,0.0
103461.689594916,58.59375,37.59765625,-19.04296875,-7.8125,0.0
103461.734770791,44.43359375,-26.85546875,-27.34375,117.1875,0.0
103461.738677041,-60.05859375,-54.6875,-33.203125,32.2265625,0.0
103461.728658333,-51.7578125,-26.3671875,-25.390625,-110.83984375,0.0
103461.732564583,41.50390625,9.27734375,-19.04296875,-47.36328125,0.0
103461.736470833,47.36328125,-43.45703125,-28.3203125,94.7265625,0.0
103461.740377083,-32.2265625,-136.71875,-48.828125,39.55078125,0.0
103461.744283333,-80.078125,-101.07421875,-58.59375,-107.421875,0.0
103461.748189583,12.6953125,-40.0390625,-45.41015625,-88.37890625,0.0
103461.752095833,48.33984375,-99.609375,-44.921875,70.3125,0.0
103461.756002083,9.765625,-32.71484375,-32.71484375,80.078125,0.0
103461.759908333,-63.96484375,-49.8046875,-23.4375,-60.05859375,0.0
103461.763814583,0.9765625,-69.3359375,-36.62109375,-112.79296875,0.0
103461.744436,52.734375,9.765625,-49.8046875,22.4609375,0.0
103461.74834225,25.390625,6.34765625,-44.43359375,81.54296875,0.0
103461.7522485,-60.05859375,-119.140625,-42.96875,-14.6484375,0.0
103461.75615475,-27.83203125,-132.32421875,-39.0625,-107.421875,0.0
103461.760061,43.9453125,-22.4609375,-25.390625,-11.23046875,0.0
103461.76396725,37.59765625,-25.87890625,-34.1796875,112.79296875,0.0
103461.7678735,-45.8984375,-110.83984375,-38.0859375,43.45703125,0.0
103461.77177975,-48.828125,-177.734375,-38.57421875,-97.65625,0.0
103461.775686,43.9453125,-29.78515625,-49.31640625,-53.7109375,0.0
103461.77959225,60.05859375,120.1171875,-40.52734375,95.703125,0.0
103461.7834985,-16.6015625,-39.55078125,-41.015625,62.98828125,0.0
103461.78740475,-83.0078125,-140.13671875,-58.59375,-98.14453125,0.0
103461.79117825,9.765625,-16.11328125,-49.8046875,-104.00390625,0.0
103461.7950845,51.26953125,54.19921875,-22.4609375,62.01171875,0.0
103461.79899075,4.8828125,-82.03125,-20.01953125,85.9375,0.0
103461.802897,-77.63671875,-162.109375,-27.34375,-51.26953125,0.0
103461.80680325,-5.859375,-48.828125,-8.30078125,-97.65625,0.0
103461.8107095,64.94140625,-14.6484375,-15.13671875,39.55078125,0.0
103461.81461575,45.41015625,-116.69921875,-42.96875,121.09375,0.0
103461.818522,-56.15234375,-202.1484375,-54.6875,32.2265625,0.0
103461.82242825,-31.73828125,-33.203125,-61.03515625,-107.91015625,0.0
103461.8263345,47.36328125,60.05859375,-46.875,-45.8984375,0.0
103461.83024075,38.0859375,-44.43359375,-22.94921875,99.12109375,0.0
103461.834147,-50.29296875,-122.55859375,-23.4375,37.109375,0.0
103461.838208625,-74.21875,-74.70703125,-21.97265625,-118.65234375,0.0
103461.842114875,28.3203125,18.5546875,-13.18359375,-75.1953125,0.0
103461.846021125,49.31640625,-66.40625,-14.6484375,83.0078125,0.0
103461.849927375,-21.97265625,-166.015625,-28.3203125,59.5703125,0.0
103461.853833625,-80.078125,-113.76953125,-27.83203125,-84.9609375,0.0
103461.857739875,4.39453125,-48.828125,-29.78515625,-111.81640625,0.0
103461.861646125,52.734375,-107.91015625,-41.9921875,42.48046875,0.0
103461.865552375,4.39453125,-143.06640625,-38.0859375,86.42578125,0.0
103461.869458625,-90.8203125,-73.73046875,-34.66796875,-48.33984375,0.0
103461.873364875,-21.97265625,-28.80859375,-33.203125,-119.62890625,0.0
103461.877271125,49.8046875,20.99609375,-41.015625,6.34765625,0.0
103461.881177375,41.50390625,2.44140625,-49.31640625,112.3046875,0.0
103461.88162325,-57.12890625,-92.7734375,-41.50390625,22.4609375,0.0
103461.8855295,-49.8046875,-101.07421875,-39.55078125,-127.44140625,0.0
103461.88943575,44.921875,-8.7890625,-33.69140625,-60.546875,0.0
103461.893342,46.38671875,31.73828125,-26.3671875,89.84375,0.0
103461.89724825,-30.2734375,-71.77734375,-35.64453125,28.3203125,0.0
103461.9011545,-59.5703125,-184.5703125,-50.78125,-119.62890625,0.0
103461.90506075,30.76171875,-133.30078125,-41.50390625,-71.77734375,0.0
103461.908967,67.3828125,41.50390625,-14.16015625,74.70703125,0.0
103461.91287325,8.7890625,4.39453125,-18.06640625,65.4296875,0.0
103461.9167795,-67.87109375,-154.296875,-37.109375,-68.359375,0.0
103461.92068575,11.23046875,-121.09375,-35.15625,-96.6796875,0.0
103461.924592,71.2890625,14.16015625,-21.97265625,53.22265625,0.0
103461.927874458,36.62109375,-21.97265625,-26.3671875,100.5859375,0.0
103461.931780708,-78.61328125,-180.17578125,-28.3203125,-24.90234375,0.0
103461.935686958,-41.015625,-115.72265625,-9.27734375,-121.09375,0.0
103461.939593208,44.43359375,-18.06640625,-9.765625,-17.08984375,0.0
103461.943499458,30.76171875,-73.2421875,-15.13671875,96.6796875,0.0
103461.947405708,-66.40625,-230.95703125,-15.13671875,29.296875,0.0
103461.951311958,-50.78125,-159.1796875,-23.92578125,-113.28125,0.0
103461.955218208,52.734375,50.78125,-24.4140625,-54.19921875,0.0
103461.959124458,56.640625,3.90625,-31.25,95.21484375,0.0
103461.963030708,-27.83203125,-155.2734375,-28.80859375,60.546875,0.0
103461.966936958,-71.2890625,-127.9296875,-16.11328125,-95.21484375,0.0
103461.970843208,13.18359375,15.13671875,-13.671875,-97.65625,0.0
103461.996832416,34.1796875,-27.83203125,-20.5078125,63.96484375,0.0
103462.000738666,-8.7890625,-140.625,-28.80859375,77.63671875,0.0
103462.004644916,-78.61328125,-133.7890625,-26.85546875,-61.5234375,0.0
103462.008551166,-5.37109375,-26.85546875,-23.4375,-114.2578125,0.0
103462.012457416,54.6875,-30.76171875,-17.08984375,27.83203125,0.0
103462.016363666,31.73828125,-146.97265625,-22.4609375,113.28125,0.0
103462.020269916,-51.26953125,-133.30078125,-30.2734375,17.578125,0.0
103462.024176166,-8.7890625,0.0,-21.97265625,-101.07421875,0.0
103462.028082416,69.3359375,-25.87890625,-35.15625,-13.18359375,0.0
103462.031988666,59.5703125,-120.60546875,-38.0859375,114.74609375,0.0
103462.035894916,-39.0625,-75.1953125,-8.30078125,33.69140625,0.0
103462.039801166,-58.10546875,-57.12890625,-2.9296875,-116.69921875,0.0
103462.017021,37.109375,-40.52734375,-10.7421875,-63.96484375,0.0
103462.02092725,57.12890625,-9.765625,-11.23046875,101.07421875,0.0
103462.0248335,-31.25,-62.01171875,-26.85546875,74.70703125,0.0
103462.02873975,-79.1015625,-168.45703125,-32.2265625,-63.96484375,0.0
103462.032646,33.203125,-93.75,-21.484375,-55.6640625,0.0
103462.03655225,71.2890625,-23.92578125,-28.3203125,88.37890625,0.0
103462.0404585,12.6953125,-52.734375,-27.83203125,111.81640625,0.0
103462.04436475,-81.0546875,-81.0546875,-23.4375,-23.92578125,0.0
103462.048271,-15.625,-149.4140625,-18.5546875,-104.4921875,0.0
103462.05217725,50.78125,-35.64453125,-23.92578125,7.8125,0.0
103462.0560835,28.80859375,52.734375,-25.87890625,81.54296875,0.0
103462.05998975,-77.1484375,-112.3046875,-20.99609375,-9.27734375,0.0
103462.06284125,-50.78125,-119.62890625,-20.5078125,-123.53515625,0.0
103462.0667475,43.45703125,19.53125,-12.6953125,-28.80859375,0.0
103462.07065375,42.48046875,20.99609375,-13.18359375,107.91015625,0.0
103462.07456,-38.57421875,-141.11328125,-30.76171875,49.31640625,0.0
103462.07846625,-57.6171875,-182.12890625,-34.1796875,-90.8203125,0.0
103462.0823725,27.34375,-88.37890625,-22.94921875,-63.96484375,0.0
103462.08627875,46.875,-38.0859375,-34.66796875,83.984375,0.0
103462.090185,-19.04296875,-138.18359375,-54.19921875,66.89453125,0.0
103462.09409125,-82.51953125,-200.1953125,-44.43359375,-71.2890625,0.0
103462.0979975,6.8359375,36.62109375,-26.3671875,-109.86328125,0.0
103462.10190375,55.6640625,90.8203125,-21.484375,34.1796875,0.0
103462.10581,13.18359375,-77.63671875,-22.94921875,91.796875,0.0
103462.109496666,-83.0078125,-139.6484375,-38.0859375,-25.390625,0.0
103462.113402916,-24.4140625,-35.15625,-46.38671875,-109.86328125,0.0
103462.117309166,43.9453125,30.76171875,-37.109375,5.37109375,0.0
103462.121215416,21.97265625,-77.1484375,-38.0859375,113.76953125,0.0
103462.125121666,-71.77734375,-148.4375,-37.109375,22.4609375,0.0
103462.129027916,-56.640625,-95.21484375,-35.64453125,-120.60546875,0.0
103462.132934166,40.0390625,-3.41796875,-44.43359375,-51.7578125,0.0
103462.136840416,52.734375,-86.9140625,-36.1328125,107.421875,0.0
103462.140746666,-34.66796875,-161.1328125,-34.66796875,61.5234375,0.0
103462.144652916,-69.82421875,-50.78125,-51.7578125,-105.46875,0.0
103462.148559166,23.4375,5.859375,-52.24609375,-87.890625,0.0
103462.152465416,40.0390625,24.4140625,-43.9453125,67.3828125,0.0
103462.156013875,-27.34375,-25.87890625,-45.8984375,65.4296875,0.0
103462.159920125,-104.00390625,-67.3828125,-43.9453125,-67.87109375,0.0
103462.163826375,-20.01953125,-28.3203125,-48.33984375,-119.140625,0.0
103462.167732625,28.3203125,2.9296875,-57.12890625,1.46484375,0.0
103462.171638875,-19.53125,-38.57421875,-54.6875,55.6640625,0.0
103462.175545125,-105.95703125,-146.97265625,-43.45703125,-51.26953125,0.0
103462.179451375,-45.41015625,-127.44140625,-43.9453125,-143.5546875,0.0
103462.183357625,40.0390625,-54.6875,-51.7578125,-33.203125,0.0
103462.187263875,27.83203125,40.0390625,-47.36328125,89.35546875,0.0
103462.191170125,-69.3359375,-9.765625,-44.43359375,19.53125,0.0
103462.195076375,-62.01171875,-78.125,-43.9453125,-115.72265625,0.0
103462.198982625,18.06640625,-24.90234375,-55.17578125,-71.77734375,0.0
103462.203247041,12.6953125,7.8125,-59.08203125,63.96484375,0.0
103462.207153291,-50.29296875,-49.8046875,-41.9921875,44.921875,0.0
103462.211059541,-83.49609375,-131.8359375,-39.0625,-94.7265625,0.0
103462.214965791,12.20703125,-65.91796875,-41.50390625,-102.05078125,0.0
103462.218872041,50.29296875,21.484375,-26.3671875,59.08203125,0.0
103462.222778291,-3.41796875,-40.0390625,-31.73828125,84.47265625,0.0
103462.226684541,-88.37890625,-223.14453125,-35.15625,-41.50390625,0.0
103462.230590791,-16.11328125,-109.375,-35.15625,-97.65625,0.0
103462.234497041,41.9921875,115.72265625,-43.45703125,25.390625,0.0
103462.238403291,18.5546875,0.48828125,-39.55078125,102.05078125,0.0
103462.242309541,-71.77734375,-129.39453125,-47.8515625,-0.9765625,0.0
103462.246215791,-42.96875,-64.453125,-52.734375,-125.48828125,0.0
103462.269236958,41.015625,45.8984375,-39.55078125,-40.52734375,0.0
103462.273143208,39.55078125,-14.6484375,-31.25,94.23828125,0.0
103462.277049458,-52.24609375,-164.55078125,-34.1796875,30.2734375,0.0
103462.280955708,-64.94140625,-81.54296875,-34.1796875,-118.1640625,0.0
103462.284861958,34.66796875,67.3828125,-27.83203125,-69.3359375,0.0
103462.288768208,56.15234375,-29.296875,-31.73828125,99.12109375,0.0
103462.292674458,-15.13671875,-177.24609375,-50.29296875,80.078125,0.0
103462.296580708,-71.77734375,-46.38671875,-67.3828125,-80.078125,0.0
103462.300486958,11.23046875,99.609375,-53.7109375,-100.5859375,0.0
103462.304393208,42.96875,17.578125,-33.69140625,43.45703125,0.0
103462.308299458,13.671875,-64.94140625,-37.109375,79.58984375,0.0
103462.312205708,-71.77734375,-67.3828125,-34.1796875,-27.83203125,0.0
103462.314974333,-17.578125,-56.640625,-18.06640625,-101.07421875,0.0
103462.318880583,59.08203125,-30.76171875,-16.6015625,19.53125,0.0
103462.322786833,29.78515625,-22.4609375,-17.578125,123.53515625,0.0
103462.326693083,-69.82421875,-128.90625,-22.94921875,29.78515625,0.0
103462.330599333,-35.64453125,-133.30078125,-40.52734375,-101.5625,0.0
103462.334505583,47.8515625,-79.1015625,-50.29296875,-18.06640625,0.0
103462.338411833,34.1796875,-69.82421875,-35.64453125,118.1640625,0.0
103462.342318083,-62.5,-58.59375,-38.0859375,49.31640625,0.0
103462.346224333,-80.56640625,-83.0078125,-41.9921875,-114.2578125,0.0
103462.350130583,28.3203125,-62.5,-13.671875,-71.77734375,0.0
103462.354036833,56.15234375,34.66796875,-5.859375,90.33203125,0.0
103462.357943083,-9.27734375,4.8828125,-19.04296875,65.91796875,0.0
103462.362025333,-77.63671875,-116.2109375,-28.80859375,-67.87109375,0.0
103462.365931583,0.0,-77.1484375,-44.921875,-101.5625,0.0
103462.369837833,48.828125,7.8125,-38.57421875,36.62109375,0.0
103462.373744083,25.390625,-41.9921875,-21.484375,92.28515625,0.0
103462.377650333,-57.6171875,-173.828125,-24.90234375,-16.6015625,0.0
103462.381556583,-19.53125,-179.19921875,-34.66796875,-109.375,0.0
103462.385462833,38.0859375,-26.3671875,-28.80859375,-11.71875,0.0
103462.389369083,23.4375,-26.3671875,-29.78515625,102.05078125,0.0
103462.393275333,-66.89453125,-204.1015625,-37.59765625,20.01953125,0.0
103462.397181583,-50.78125,-180.6640625,-26.3671875,-113.76953125,0.0
103462.401087833,35.15625,47.36328125,-26.3671875,-49.8046875,0.0
103462.404994083,41.50390625,30.76171875,-28.3203125,106.4453125,0.0
103462.425947958,-30.2734375,-153.3203125,-37.59765625,72.265625,0.0
103462.429854208,-57.6171875,-143.5546875,-38.57421875,-81.0546875,0.0
103462.419731041,49.31640625,4.39453125,-19.53125,-73.2421875,0.0
103462.423637291,76.66015625,-26.85546875,-21.484375,78.61328125,0.0
103462.427543541,7.32421875,-153.3203125,-32.71484375,72.265625,0.0
103462.431449791,-71.77734375,-182.6171875,-34.1796875,-72.75390625,0.0
103462.435356041,12.20703125,-49.31640625,-20.5078125,-105.95703125,0.0
103462.439262291,62.98828125,51.7578125,-22.94921875,35.15625,0.0
103462.443168541,13.18359375,-159.66796875,-50.78125,103.02734375,0.0
103462.447074791,-83.49609375,-204.58984375,-53.22265625,-11.71875,0.0
103462.450981041,-27.34375,-15.13671875,-34.66796875,-129.8828125,0.0
103462.454887291,59.5703125,-0.9765625,-22.94921875,-24.4140625,0.0
103462.455451083,45.41015625,-4.39453125,-30.2734375,96.6796875,0.0
103462.459357333,-51.26953125,-52.734375,-53.22265625,27.83203125,0.0
103462.463263583,-47.8515625,-47.8515625,-47.36328125,-109.375,0.0
103462.467169833,40.0390625,-17.578125,-34.66796875,-52.734375,0.0
103462.471076083,41.9921875,-43.45703125,-39.0625,94.7265625,0.0
103462.474982333,-38.0859375,-137.20703125,-44.921875,43.45703125,0.0
103462.480564458,-79.58984375,-112.79296875,-42.48046875,-108.3984375,0.0
103462.484470708,16.6015625,-48.828125,-35.64453125,-94.23828125,0.0
103462.488376958,43.45703125,-93.26171875,-34.1796875,63.96484375,0.0
103462.492283208,-21.484375,-25.87890625,-34.1796875,66.89453125,0.0
103462.496189458,-97.65625,-63.96484375,-39.0625,-72.75390625,0.0
103462.500095708,-19.53125,-78.61328125,-46.38671875,-127.9296875,0.0
103462.520901833,45.41015625,-24.90234375,-40.0390625,3.41796875,0.0
103462.50468125,10.25390625,-56.640625,-48.33984375,82.51953125,0.0
103462.5085875,-86.42578125,-118.65234375,-62.98828125,-19.04296875,0.0
103462.51249375,-36.62109375,-112.79296875,-45.41015625,-121.58203125,0.0
103462.5164,41.9921875,-41.50390625,-28.3203125,-31.25,0.0
103462.52030625,32.2265625,-51.26953125,-31.25,102.5390625,0.0
103462.5242125,-54.6875,-105.95703125,-42.48046875,49.8046875,0.0
103462.52811875,-60.05859375,-196.2890625,-44.921875,-95.21484375,0.0
103462.532025,29.78515625,-82.51953125,-45.8984375,-66.40625,0.0
103462.53593125,39.0625,93.75,-33.69140625,77.1484375,0.0
103462.5398375,-30.76171875,-66.89453125,-26.85546875,57.12890625,0.0
103462.54374375,-78.61328125,-138.18359375,-29.296875,-90.33203125,0.0
103462.544923541,10.7421875,0.48828125,-25.87890625,-102.05078125,0.0
103462.548829791,46.38671875,50.29296875,-21.97265625,50.29296875,0.0
103462.552736041,4.39453125,-78.61328125,-19.53125,93.26171875,0.0
103462.556642291,-79.58984375,-192.3828125,-29.78515625,-23.4375,0.0
103462.560548541,-14.16015625,-90.8203125,-39.55078125,-101.07421875,0.0
103462.564454791,51.26953125,0.0,-48.828125,15.625,0.0
103462.568361041,26.3671875,-71.2890625,-37.109375,113.76953125,0.0
103462.572267291,-63.96484375,-193.84765625,-19.53125,37.109375,0.0
103462.576173541,-30.2734375,-37.109375,-16.11328125,-102.05078125,0.0
103462.580079791,53.22265625,108.88671875,-15.13671875,-36.62109375,0.0
103462.583986041,49.31640625,-6.8359375,-13.18359375,106.93359375,0.0
103462.587892291,-34.66796875,-107.421875,-19.53125,56.15234375,0.0
103462.590961291,-55.6640625,-70.3125,-35.64453125,-82.03125,0.0
103462.594867541,41.9921875,20.01953125,-27.34375,-57.12890625,0.0
103462.598773791,69.3359375,2.44140625,-21.97265625,100.09765625,0.0
103462.602680041,-8.30078125,-114.2578125,-41.9921875,83.984375,0.0
103462.606586291,-84.9609375,-118.1640625,-55.6640625,-60.05859375,0.0
103462.610492541,12.20703125,-12.6953125,-47.8515625,-81.0546875,0.0
103462.614398791,56.15234375,-86.42578125,-39.0625,61.03515625,0.0
103462.618305041,2.9296875,-120.60546875,-40.0390625,93.26171875,0.0
103462.622211291,-83.49609375,-8.7890625,-32.2265625,-37.109375,0.0
103462.626117541,-22.94921875,-3.90625,-29.78515625,-113.76953125,0.0
103462.630023791,42.48046875,18.06640625,-30.76171875,1.953125,0.0
103462.633930041,19.53125,7.8125,-32.71484375,96.19140625,0.0
103462.63822025,-80.078125,-75.1953125,-46.38671875,4.8828125,0.0
103462.6421265,-65.91796875,-91.796875,-46.38671875,-120.1171875,0.0
103462.64603275,28.3203125,-18.06640625,-33.69140625,-57.6171875,0.0
103462.649939,39.0625,7.32421875,-28.3203125,77.63671875,0.0
103462.65384525,-33.203125,-81.54296875,-27.83203125,41.50390625,0.0
103462.6577515,-66.89453125,-182.6171875,-42.96875,-91.796875,0.0
103462.66165775,21.484375,-137.20703125,-54.19921875,-87.40234375,0.0
103462.665564,51.7578125,36.62109375,-39.0625,56.15234375,0.0
103462.66947025,-5.37109375,-18.06640625,-25.390625,71.77734375,0.0
103462.6733765,-88.8671875,-187.5,-39.0625,-57.6171875,0.0
103462.67728275,-10.7421875,-84.47265625,-35.64453125,-104.98046875,0.0
103462.681189,57.12890625,57.6171875,-21.484375,31.25,0.0
103462.684951083,32.2265625,-27.34375,-34.1796875,98.14453125,0.0
103462.688857333,-53.22265625,-227.5390625,-42.96875,-6.8359375,0.0
103462.692763583,-10.7421875,-225.09765625,-37.109375,-103.515625,0.0
103462.696669833,44.921875,-144.53125,-45.8984375,-0.9765625,0.0
103462.700576083,25.390625,-181.640625,-60.05859375,111.328125,0.0
103462.704482333,-66.89453125,-357.421875,-70.3125,53.22265625,0.0
103462.708388583,-57.12890625,-287.59765625,-61.5234375,-81.54296875,0.0
103462.712294833,33.203125,-12.6953125,-34.1796875,-55.6640625,0.0
103462.716201083,41.50390625,-69.3359375,-22.94921875,89.84375,0.0
103462.720107333,-33.69140625,-204.58984375,-30.76171875,66.40625,0.0
103462.724013583,-83.49609375,-182.12890625,-37.59765625,-85.44921875,0.0
103462.727919833,7.8125,-93.75,-34.1796875,-92.28515625,0.0
103462.727115791,50.78125,-97.65625,-42.96875,65.91796875,0.0
103462.731022041,-2.44140625,-139.16015625,-60.05859375,85.9375,0.0
103462.734928291,-86.9140625,-147.4609375,-60.546875,-48.828125,0.0
103462.738834541,-16.11328125,-71.77734375,-41.9921875,-106.93359375,0.0
103462.742740791,46.875,-59.5703125,-44.921875,27.83203125,0.0
103462.746647041,19.04296875,-169.921875,-69.82421875,107.421875,0.0
103462.750553291,-76.66015625,-174.31640625,-69.3359375,0.9765625,0.0
103462.754459541,-50.29296875,-55.17578125,-46.38671875,-119.140625,0.0
103462.758365791,29.78515625,-82.51953125,-28.3203125,-30.2734375,0.0
103462.762272041,35.64453125,-165.0390625,-32.2265625,109.86328125,0.0
103462.766178291,-55.6640625,-109.375,-37.59765625,49.8046875,0.0
103462.770084541,-62.5,-93.26171875,-48.33984375,-96.19140625,0.0
103462.773341,33.203125,-81.0546875,-49.8046875,-53.22265625,0.0
103462.77724725,52.734375,-63.96484375,-38.57421875,93.26171875,0.0
103462.7811535,-2.9296875,-106.93359375,-39.0625,63.96484375,0.0
103462.78505975,-80.56640625,-159.1796875,-56.15234375,-80.56640625,0.0
103462.788966,-7.32421875,-72.75390625,-55.6640625,-102.05078125,0.0
103462.79287225,42.96875,-33.203125,-43.45703125,54.6875,0.0
103462.7967785,3.41796875,-54.6875,-41.015625,91.796875,0.0
103462.80068475,-78.125,-67.3828125,-41.50390625,-36.62109375,0.0
103462.804591,-12.20703125,-171.38671875,-45.41015625,-105.95703125,0.0
103462.80849725,46.875,-74.21875,-31.25,6.34765625,0.0
103462.8124035,15.625,57.6171875,-22.4609375,90.33203125,0.0
103462.81630975,-77.1484375,-105.46875,-32.71484375,8.7890625,0.0
103462.821320041,-48.33984375,-112.79296875,-38.0859375,-108.3984375,0.0
103462.825226291,36.1328125,24.4140625,-40.52734375,-35.15625,0.0
103462.829132541,40.52734375,30.76171875,-41.015625,103.515625,0.0
103462.833038791,-41.50390625,-112.3046875,-49.31640625,51.26953125,0.0
103462.836945041,-61.03515625,-160.64453125,-62.01171875,-96.19140625,0.0
103462.840851291,44.921875,-68.359375,-48.33984375,-65.4296875,0.0
103462.844757541,70.3125,-45.8984375,-23.92578125,86.9140625,0.0
103462.848663791,-13.671875,-147.4609375,-25.390625,66.89453125,0.0
103462.852570041,-93.75,-215.8203125,-41.50390625,-81.0546875,0.0
103462.856476291,-6.34765625,-2.44140625,-44.921875,-122.0703125,0.0
103462.860382541,38.0859375,77.1484375,-45.8984375,19.53125,0.0
103462.864288791,2.9296875,-86.42578125,-48.33984375,86.9140625,0.0
103462.866587333,-77.63671875,-135.7421875,-49.31640625,-13.671875,0.0
103462.870493583,-23.4375,-20.99609375,-38.0859375,-107.91015625,0.0
103462.874399833,52.734375,11.71875,-21.97265625,-5.859375,0.0
103462.878306083,33.203125,-99.609375,-34.1796875,102.05078125,0.0
103462.882212333,-77.63671875,-166.015625,-54.19921875,15.625,0.0
103462.886118583,-72.265625,-117.67578125,-53.22265625,-125.48828125,0.0
103462.890024833,27.83203125,-14.6484375,-35.64453125,-67.3828125,0.0
103462.893931083,48.828125,-116.2109375,-38.57421875,97.65625,0.0
103462.897837333,-29.296875,-170.8984375,-58.10546875,61.5234375,0.0
103462.901743583,-68.84765625,-6.34765625,-56.15234375,-111.81640625,0.0
103462.905649833,23.92578125,9.765625,-42.48046875,-108.3984375,0.0
103462.909556083,47.8515625,-21.484375,-28.80859375,46.38671875,0.0
103462.915097125,-8.7890625,-62.01171875,-18.5546875,61.5234375,0.0
103462.919003375,-90.33203125,-104.98046875,-20.5078125,-71.2890625,0.0
103462.922909625,-24.4140625,-83.49609375,-25.87890625,-115.72265625,0.0
103462.926815875,35.15625,-30.76171875,-32.2265625,18.5546875,0.0
103462.930722125,10.7421875,-52.24609375,-43.9453125,89.84375,0.0
103462.934628375,-77.63671875,-155.2734375,-69.82421875,-13.671875,0.0
103462.938534625,-22.94921875,-149.90234375,-72.75390625,-123.046875,0.0
103462.942440875,62.01171875,-65.91796875,-41.015625,-15.625,0.0
103462.946347125,37.109375,32.71484375,-20.01953125,101.07421875,0.0
103462.950253375,-59.5703125,-42.48046875,-20.01953125,20.99609375,0.0
103462.954159625,-54.19921875,-132.32421875,-21.97265625,-105.46875,0.0
103462.958065875,42.48046875,-21.484375,-25.87890625,-41.015625,0.0
103462.958749958,61.03515625,62.98828125,-40.0390625,98.14453125,0.0
103462.962656208,-21.97265625,-51.7578125,-45.8984375,55.6640625,0.0
103462.966562458,-70.80078125,-153.3203125,-39.55078125,-79.1015625,0.0
103462.970468708,20.99609375,-82.51953125,-43.45703125,-77.63671875,0.0
103462.974374958,44.921875,-0.48828125,-45.8984375,65.4296875,0.0
103462.978281208,-9.765625,-70.3125,-35.64453125,85.44921875,0.0
103462.982187458,-89.35546875,-238.28125,-33.203125,-37.109375,0.0
103462.986093708,-13.18359375,-130.37109375,-27.83203125,-105.95703125,0.0
103462.989999958,48.33984375,104.98046875,-20.01953125,3.90625,0.0
103462.993906208,20.01953125,2.44140625,-27.34375,89.84375,0.0
103462.997812458,-65.4296875,-127.9296875,-32.2265625,2.44140625,0.0
103463.001718708,-23.4375,-46.875,-18.5546875,-104.98046875,0.0
103463.023422666,59.08203125,17.578125,-20.01953125,-13.671875,0.0
103463.027328916,56.640625,-46.875,-30.2734375,127.44140625,0.0
103463.031235166,-33.69140625,-108.88671875,-24.4140625,62.01171875,0.0
103463.035141416,-50.29296875,-56.640625,-26.3671875,-101.5625,0.0
103463.039047666,37.59765625,22.4609375,-27.34375,-66.89453125,0.0
103463.042953916,52.734375,-59.08203125,-20.99609375,92.28515625,0.0
103463.046860166,-10.7421875,-185.05859375,-29.296875,85.44921875,0.0
103463.050766416,-63.4765625,-69.3359375,-30.76171875,-52.734375,0.0
103463.054672666,41.50390625,83.49609375,-7.8125,-67.87109375,0.0
103463.058578916,88.37890625,7.8125,5.859375,75.1953125,0.0
103463.062485166,30.2734375,-76.171875,1.953125,106.93359375,0.0
103463.066391416,-50.78125,-64.453125,-3.41796875,-3.90625,0.0
103463.084987958,26.85546875,-16.11328125,-16.11328125,-69.3359375,0.0
103463.088894208,97.65625,12.20703125,-12.6953125,47.8515625,0.0
103463.078773791,75.1953125,-23.4375,-12.6953125,149.4140625,0.0
103463.082680041,-16.6015625,-109.86328125,-25.87890625,62.01171875,0.0
103463.086586291,-2.9296875,-96.19140625,-30.2734375,-80.078125,0.0
103463.090492541,69.82421875,-27.34375,-25.390625,-10.7421875,0.0
103463.094398791,72.75390625,3.41796875,-4.39453125,132.8125,0.0
103463.098305041,-5.859375,-19.53125,16.11328125,82.51953125,0.0
103463.102211291,-27.34375,-38.57421875,8.30078125,-64.94140625,0.0
103463.106117541,67.87109375,-56.640625,-7.32421875,-27.34375,0.0
103463.110023791,89.35546875,18.5546875,-9.27734375,121.09375,0.0
103463.113930041,10.7421875,48.33984375,-11.71875,91.30859375,0.0
103463.130870166,-57.6171875,-83.984375,-15.13671875,-48.828125,0.0
103463.134776416,44.43359375,-28.3203125,-3.90625,-60.546875,0.0
103463.124624708,97.65625,77.63671875,-8.7890625,89.84375,0.0
103463.128530958,48.828125,12.6953125,-26.85546875,135.25390625,0.0
103463.132437208,-41.9921875,-129.8828125,-12.20703125,18.06640625,0.0
103463.136343458,10.25390625,-126.46484375,-4.39453125,-73.2421875,0.0
103463.140249708,70.80078125,5.37109375,-11.23046875,30.76171875,0.0
103463.144155958,49.8046875,35.64453125,-7.8125,136.71875,0.0
103463.148062208,-40.52734375,-117.1875,-5.37109375,55.6640625,0.0
103463.151968458,-30.76171875,-170.8984375,-14.16015625,-90.8203125,0.0
103463.155874708,64.453125,52.24609375,-22.4609375,-23.4375,0.0
103463.159780958,73.73046875,75.1953125,-31.25,136.23046875,0.0
103463.176353333,-19.53125,-107.421875,-32.71484375,83.0078125,0.0
103463.180259583,-62.01171875,-134.765625,-28.80859375,-80.078125,0.0
103463.168845416,39.0625,14.6484375,-20.5078125,-68.359375,0.0
103463.172751666,74.21875,-10.7421875,-15.13671875,95.703125,0.0
103463.176657916,5.859375,-120.60546875,-22.4609375,100.09765625,0.0
103463.180564166,-72.265625,-162.59765625,-30.76171875,-36.1328125,0.0
103463.184470416,9.27734375,-46.38671875,-36.62109375,-81.54296875,0.0
103463.188376666,65.4296875,71.2890625,-26.3671875,49.31640625,0.0
103463.192282916,30.76171875,-152.34375,-28.3203125,131.8359375,0.0
103463.196189166,-65.4296875,-220.703125,-46.875,21.484375,0.0
103463.200095416,-21.97265625,14.16015625,-30.76171875,-107.421875,0.0
103463.204001666,57.12890625,39.55078125,-4.8828125,-5.859375,0.0
103463.221207583,49.31640625,-38.0859375,-7.32421875,118.1640625,0.0
103463.225113833,-36.62109375,-76.66015625,-14.16015625,51.26953125,0.0
103463.216327,-39.55078125,-44.43359375,-20.99609375,-87.890625,0.0
103463.22023325,62.98828125,-6.8359375,-11.23046875,-35.15625,0.0
103463.2241395,81.54296875,-37.59765625,-12.6953125,113.28125,0.0
103463.22804575,-4.8828125,-141.11328125,-37.59765625,86.42578125,0.0
103463.231952,-52.734375,-105.95703125,-43.45703125,-53.22265625,0.0
103463.23585825,34.1796875,-23.4375,-42.96875,-60.05859375,0.0
103463.2397645,57.6171875,-76.66015625,-30.2734375,102.05078125,0.0
103463.24367075,1.953125,-13.18359375,-22.4609375,111.328125,0.0
103463.247577,-71.77734375,-27.83203125,-20.99609375,-30.2734375,0.0
103463.25148325,7.32421875,-59.08203125,-16.6015625,-88.37890625,0.0
103463.228988583,67.3828125,9.765625,-20.99609375,32.71484375,0.0
103463.232894833,33.69140625,11.71875,-19.53125,98.6328125,0.0
103463.236801083,-57.6171875,-101.5625,-28.3203125,6.8359375,0.0
103463.240707333,-12.20703125,-141.11328125,-39.0625,-94.23828125,0.0
103463.244613583,65.4296875,-29.78515625,-24.4140625,-11.71875,0.0
103463.248519833,45.8984375,-16.6015625,-22.94921875,109.86328125,0.0
103463.252426083,-41.9921875,-97.65625,-31.73828125,42.48046875,0.0
103463.256332333,-49.8046875,-174.8046875,-35.64453125,-100.09765625,0.0
103463.260238583,34.66796875,-58.59375,-34.1796875,-61.03515625,0.0
103463.264144833,48.33984375,126.46484375,-25.390625,81.54296875,0.0
103463.268051083,-16.6015625,-30.76171875,-32.71484375,60.05859375,0.0
103463.271957333,-72.265625,-116.69921875,-36.1328125,-83.984375,0.0
103463.274594833,13.18359375,16.6015625,-28.80859375,-105.46875,0.0
103463.278501083,51.7578125,46.875,-24.4140625,43.45703125,0.0
103463.282407333,12.6953125,-83.984375,-33.69140625,85.9375,0.0
103463.286313583,-77.63671875,-131.34765625,-36.62109375,-39.55078125,0.0
103463.290219833,-15.13671875,-20.5078125,-28.80859375,-116.69921875,0.0
103463.294126083,56.640625,10.25390625,-37.109375,6.34765625,0.0
103463.298032333,33.69140625,-86.9140625,-46.38671875,94.23828125,0.0
103463.301938583,-67.3828125,-193.359375,-53.22265625,0.48828125,0.0
103463.305844833,-55.17578125,-40.52734375,-45.41015625,-129.8828125,0.0
103463.309751083,28.80859375,95.703125,-36.1328125,-56.640625,0.0
103463.313657333,33.69140625,-8.30078125,-36.1328125,84.47265625,0.0
103463.317563583,-48.33984375,-106.93359375,-30.76171875,40.52734375,0.0
103463.320039416,-68.84765625,-51.26953125,-25.390625,-97.65625,0.0
103463.323945666,23.92578125,32.71484375,-29.296875,-73.73046875,0.0
103463.327851916,41.9921875,-8.30078125,-42.96875,81.0546875,0.0
103463.331758166,-22.94921875,-115.234375,-63.4765625,67.87109375,0.0
103463.335664416,-83.0078125,-130.37109375,-59.08203125,-63.4765625,0.0
103463.339570666,4.39453125,-11.23046875,-39.55078125,-101.07421875,0.0
103463.343476916,52.24609375,-80.078125,-42.96875,39.55078125,0.0
103463.347383166,8.7890625,-118.65234375,-44.43359375,91.796875,0.0
103463.351289416,-90.8203125,-14.16015625,-32.71484375,-35.15625,0.0
103463.355195666,-32.2265625,-19.04296875,-24.90234375,-126.46484375,0.0
103463.359101916,46.875,26.85546875,-30.76171875,-21.484375,0.0
103463.363008166,30.76171875,22.94921875,-34.1796875,101.5625,0.0
103463.391523166,-65.91796875,-55.6640625,-52.734375,29.78515625,0.0
103463.395429416,-38.57421875,-82.03125,-53.22265625,-97.16796875,0.0
103463.399335666,60.546875,-8.7890625,-28.80859375,-25.390625,0.0
103463.403241916,57.6171875,44.921875,-14.16015625,115.72265625,0.0
103463.407148166,-27.83203125,-69.82421875,-23.92578125,63.4765625,0.0
103463.411054416,-72.265625,-169.921875,-38.0859375,-94.23828125,0.0
103463.414960666,17.08984375,-118.65234375,-33.69140625,-83.0078125,0.0
103463.418866916,43.45703125,12.6953125,-34.1796875,63.4765625,0.0
103463.422773166,-18.5546875,11.23046875,-36.1328125,70.3125,0.0
103463.426679416,-85.9375,-107.91015625,-27.34375,-56.15234375,0.0
103463.430585666,-0.9765625,-43.9453125,-30.2734375,-109.86328125,0.0
103463.434491916,44.921875,59.08203125,-35.15625,15.625,0.0
103463.44019125,-4.8828125,-24.90234375,-55.17578125,79.1015625,0.0
103463.4440975,-99.12109375,-139.16015625,-72.265625,-28.3203125,0.0
103463.44800375,-44.43359375,-77.1484375,-60.05859375,-129.39453125,0.0
103463.45191,31.73828125,-8.30078125,-51.26953125,-28.80859375,0.0
103463.45581625,20.01953125,-43.45703125,-42.96875,91.30859375,0.0
103463.4597225,-66.40625,-156.25,-48.33984375,21.97265625,0.0
103463.46362875,-73.73046875,-128.41796875,-49.8046875,-128.90625,0.0
103463.467535,20.01953125,37.109375,-30.76171875,-72.265625,0.0
103463.47144125,33.203125,8.30078125,-22.94921875,83.984375,0.0
103463.4753475,-48.828125,-215.33203125,-35.64453125,51.7578125,0.0
103463.47925375,-88.8671875,-195.80078125,-49.31640625,-95.21484375,0.0
103463.48316,30.76171875,58.10546875,-36.1328125,-98.6328125,0.0
103463.521307208,81.54296875,45.41015625,-23.4375,74.21875,0.0
103463.525213458,25.390625,-73.73046875,-31.25,107.421875,0.0
103463.510613416,-57.6171875,-101.07421875,-33.69140625,-25.390625,0.0
103463.514519666,5.859375,-11.71875,-30.2734375,-93.75,0.0
103463.518425916,62.5,10.25390625,-24.4140625,28.3203125,0.0
103463.522332166,38.0859375,-99.609375,-16.6015625,113.28125,0.0
103463.526238416,-49.8046875,-129.8828125,-20.01953125,17.08984375,0.0
103463.530144666,-10.25390625,-18.06640625,-32.2265625,-107.91015625,0.0
103463.534050916,70.80078125,-15.625,-35.15625,-22.4609375,0.0
103463.537957166,65.4296875,-110.83984375,-35.64453125,119.140625,0.0
103463.541863416,-23.4375,-56.15234375,-38.0859375,44.43359375,0.0
103463.545769666,-41.015625,-20.5078125,-29.78515625,-109.86328125,0.0
103463.525292666,42.48046875,-40.52734375,-34.1796875,-61.5234375,0.0
103463.529198916,53.22265625,-14.6484375,-40.0390625,91.30859375,0.0
103463.533105166,-14.6484375,-15.13671875,-39.55078125,61.5234375,0.0
103463.537011416,-73.73046875,-124.0234375,-47.8515625,-85.44921875,0.0
103463.540917666,14.6484375,-90.8203125,-40.0390625,-85.9375,0.0
103463.544823916,61.5234375,-10.7421875,-23.92578125,71.2890625,0.0
103463.548730166,21.484375,-20.99609375,-20.01953125,97.65625,0.0
103463.552636416,-69.82421875,-57.6171875,-34.1796875,-30.76171875,0.0
103463.556542666,-13.18359375,-137.20703125,-42.48046875,-100.5859375,0.0
103463.560448916,50.78125,-41.9921875,-23.92578125,21.97265625,0.0
103463.564355166,26.3671875,65.91796875,-14.16015625,106.4453125,0.0
103463.568261416,-66.40625,-79.58984375,-23.92578125,31.73828125,0.0
103463.568417416,-44.43359375,-111.81640625,-38.0859375,-85.44921875,0.0
103463.572323666,50.29296875,33.69140625,-45.41015625,-19.53125,0.0
103463.576229916,56.640625,44.921875,-32.2265625,119.140625,0.0
103463.580136166,-21.97265625,-122.55859375,-26.3671875,72.265625,0.0
103463.584042416,-45.8984375,-136.71875,-36.62109375,-71.77734375,0.0
103463.587948666,38.57421875,-9.27734375,-30.76171875,-56.15234375,0.0
103463.591854916,60.546875,56.15234375,-26.85546875,83.984375,0.0
103463.595761166,0.48828125,-67.3828125,-28.3203125,78.61328125,0.0
103463.599667416,-72.75390625,-193.359375,-24.90234375,-57.12890625,0.0
103463.603573666,10.7421875,32.2265625,-27.83203125,-90.33203125,0.0
103463.607479916,63.96484375,125.9765625,-24.4140625,43.9453125,0.0
103463.611386166,30.76171875,-43.45703125,-22.94921875,97.65625,0.0
103463.6158115,-57.12890625,-134.765625,-30.2734375,-9.765625,0.0
103463.61971775,-13.671875,-22.4609375,-25.390625,-116.69921875,0.0
103463.623624,64.94140625,51.26953125,-30.76171875,-9.27734375,0.0
103463.62753025,43.45703125,-52.24609375,-30.76171875,116.69921875,0.0
103463.6314365,-30.76171875,-121.09375,-22.94921875,25.87890625,0.0
103463.63534275,0.0,-75.1953125,-20.5078125,-117.67578125,0.0
103463.639249,61.5234375,15.13671875,-11.23046875,-40.0390625,0.0
103463.64315525,66.40625,-70.80078125,-9.27734375,125.48828125,0.0
103463.6470615,-8.30078125,-127.44140625,-27.83203125,93.26171875,0.0
103463.65096775,-55.6640625,-1.953125,-39.0625,-75.68359375,0.0
103463.654874,35.15625,10.7421875,-15.13671875,-67.87109375,0.0
103463.65878025,71.77734375,14.6484375,8.7890625,92.28515625,0.0
103463.66193425,19.53125,-24.90234375,-6.34765625,91.796875,0.0
103463.6658405,-55.6640625,-69.82421875,-26.85546875,-44.43359375,0.0
103463.66974675,8.30078125,-49.31640625,-31.25,-90.33203125,0.0
103463.673653,63.4765625,-16.11328125,-28.3203125,41.015625,0.0
103463.67755925,35.15625,-17.578125,-30.76171875,101.5625,0.0
103463.6814655,-54.19921875,-116.69921875,-28.80859375,4.8828125,0.0
103463.68537175,-9.27734375,-124.0234375,-12.20703125,-87.40234375,0.0
103463.689278,65.4296875,-70.80078125,-2.44140625,2.44140625,0.0
103463.69318425,56.15234375,14.6484375,-12.6953125,113.76953125,0.0
103463.6970905,-50.78125,-22.4609375,-23.92578125,40.52734375,0.0
103463.70099675,-62.01171875,-81.0546875,-29.78515625,-104.98046875,0.0
103463.704903,35.64453125,9.765625,-37.109375,-58.59375,0.0
103463.705321083,54.19921875,58.10546875,-47.8515625,91.796875,0.0
103463.709227333,-15.13671875,-50.78125,-53.7109375,65.4296875,0.0
103463.713133583,-66.40625,-138.18359375,-39.55078125,-75.1953125,0.0
103463.717039833,29.296875,-66.89453125,-25.87890625,-76.171875,0.0
103463.720946083,68.84765625,20.99609375,-17.08984375,76.171875,0.0
103463.724852333,10.7421875,-58.59375,-21.484375,103.515625,0.0
103463.728758583,-70.80078125,-224.12109375,-28.3203125,-4.39453125,0.0
103463.732664833,3.90625,-104.4921875,-17.578125,-70.3125,0.0
103463.736571083,65.91796875,137.20703125,-12.6953125,29.78515625,0.0
103463.740477333,35.15625,28.80859375,-31.25,109.86328125,0.0
103463.744383583,-69.3359375,-125.48828125,-53.7109375,2.9296875,0.0
103463.748289833,-38.57421875,-62.01171875,-47.36328125,-122.55859375,0.0
103463.772232333,58.59375,84.9609375,-31.25,-33.69140625,0.0
103463.776138583,56.640625,35.15625,-38.0859375,102.05078125,0.0
103463.780044833,-40.0390625,-92.7734375,-39.55078125,42.48046875,0.0
103463.783951083,-50.29296875,-49.31640625,-27.34375,-104.00390625,0.0
103463.787857333,56.640625,43.45703125,-18.5546875,-57.6171875,0.0
103463.791763583,72.75390625,-18.06640625,-21.484375,113.28125,0.0
103463.795669833,0.0,-161.62109375,-28.80859375,102.05078125,0.0
103463.799576083,-67.87109375,-67.87109375,-31.25,-56.640625,0.0
103463.803482333,10.7421875,85.9375,-36.62109375,-83.984375,0.0
103463.807388583,54.6875,34.66796875,-39.0625,65.4296875,0.0
103463.811294833,6.34765625,-46.38671875,-35.64453125,98.6328125,0.0
103463.815201083,-79.1015625,-53.7109375,-27.34375,-30.76171875,0.0
103463.83970525,-10.7421875,6.8359375,-8.7890625,-106.4453125,0.0
103463.825745541,54.6875,3.41796875,-10.7421875,29.78515625,0.0
103463.829651791,26.85546875,-40.0390625,-27.34375,132.8125,0.0
103463.833558041,-69.3359375,-83.0078125,-37.109375,31.25,0.0
103463.837464291,-45.8984375,-40.0390625,-41.015625,-111.81640625,0.0
103463.841370541,41.015625,-23.4375,-38.0859375,-35.64453125,0.0
103463.845276791,37.59765625,-29.296875,-36.62109375,111.328125,0.0
103463.849183041,-40.52734375,3.41796875,-36.62109375,50.78125,0.0
103463.853089291,-57.12890625,-54.6875,-38.0859375,-102.05078125,0.0
103463.856995541,35.15625,-55.17578125,-36.62109375,-68.84765625,0.0
103463.860901791,52.24609375,9.765625,-28.3203125,89.35546875,0.0
103463.864808041,-5.859375,-13.671875,-19.53125,63.4765625,0.0
103463.853612416,-76.171875,-116.2109375,-36.62109375,-79.1015625,0.0
103463.857518666,-0.48828125,-62.01171875,-25.390625,-88.37890625,0.0
103463.861424916,47.36328125,35.15625,-9.27734375,52.24609375,0.0
103463.865331166,5.37109375,-32.71484375,-22.94921875,86.42578125,0.0
103463.869237416,-96.6796875,-166.9921875,-47.36328125,-27.34375,0.0
103463.873143666,-38.0859375,-143.5546875,-49.31640625,-118.65234375,0.0
103463.877049916,44.921875,-17.08984375,-25.390625,-13.18359375,0.0
103463.880956166,26.85546875,27.83203125,-14.16015625,93.26171875,0.0
103463.884862416,-67.3828125,-149.90234375,-24.4140625,12.20703125,0.0
103463.89771675,-50.78125,-212.40234375,-47.36328125,-105.46875,0.0
103463.901623,50.29296875,44.921875,-45.41015625,-37.59765625,0.0
103463.90552925,48.828125,59.08203125,-32.2265625,105.46875,0.0
103463.9094405,-34.66796875,-133.30078125,-36.1328125,58.59375,0.0
103463.91334675,-75.68359375,-144.04296875,-27.34375,-105.95703125,0.0
103463.917253,5.37109375,4.8828125,-22.4609375,-99.609375,0.0
103463.92115925,43.9453125,-7.8125,-19.53125,73.2421875,0.0
103463.9250655,-1.953125,-122.0703125,-13.18359375,84.9609375,0.0
103463.92897175,-86.42578125,-160.15625,-30.2734375,-44.43359375,0.0
103463.932878,-8.30078125,-46.38671875,-33.203125,-93.75,0.0
103463.93678425,50.78125,23.4375,-33.69140625,23.92578125,0.0
103463.9406905,21.484375,-162.109375,-41.50390625,109.375,0.0
103463.94459675,-73.73046875,-205.078125,-49.31640625,8.7890625,0.0
103463.948503,-35.64453125,15.13671875,-50.29296875,-117.67578125,0.0
103463.95240925,43.45703125,32.71484375,-34.66796875,-21.484375,0.0
103463.955504416,29.296875,-26.85546875,-23.92578125,108.3984375,0.0
103463.959410666,-55.6640625,-68.359375,-33.203125,33.203125,0.0
103463.963316916,-48.33984375,-57.12890625,-37.109375,-110.83984375,0.0
103463.967223166,47.36328125,-17.578125,-32.71484375,-55.17578125,0.0
103463.971129416,66.40625,-47.36328125,-28.3203125,96.6796875,0.0
103463.975035666,-10.25390625,-139.6484375,-24.4140625,68.359375,0.0
103463.978941916,-69.3359375,-125.0,-38.57421875,-83.49609375,0.0
103463.982848166,30.2734375,-45.8984375,-44.43359375,-79.1015625,0.0
103463.986754416,71.2890625,-68.84765625,-33.69140625,89.35546875,0.0
103463.990660666,14.16015625,-62.5,-33.69140625,94.7265625,0.0
103463.994566916,-80.56640625,-85.44921875,-32.2265625,-53.22265625,0.0
103463.998473166,-9.27734375,-70.3125,-33.69140625,-117.67578125,0.0
103464.016331916,61.03515625,-16.6015625,-41.50390625,20.99609375,0.0
103464.020238166,27.34375,8.7890625,-41.015625,98.6328125,0.0
103464.010212541,-67.87109375,-82.51953125,-42.96875,-2.9296875,0.0
103464.014118791,-31.25,-104.98046875,-43.45703125,-112.79296875,0.0
103464.018025041,58.59375,-18.06640625,-36.62109375,-25.390625,0.0
103464.021931291,51.7578125,-24.4140625,-29.296875,103.515625,0.0
103464.025837541,-32.2265625,-114.74609375,-27.83203125,39.55078125,0.0
103464.029743791,-35.15625,-185.546875,-35.64453125,-93.75,0.0
103464.033650041,47.8515625,-56.15234375,-42.96875,-62.01171875,0.0
103464.037556291,60.05859375,123.53515625,-27.34375,76.66015625,0.0
103464.041462541,-15.13671875,-20.5078125,-26.3671875,75.68359375,0.0
103464.045368791,-94.23828125,-109.86328125,-35.15625,-58.10546875,0.0
103464.061562416,3.90625,-24.90234375,-34.1796875,-79.58984375,0.0
103464.065468666,58.59375,47.8515625,-34.1796875,58.10546875,0.0
103464.055335291,9.27734375,-33.203125,-40.52734375,88.8671875,0.0
103464.059241541,-71.77734375,-141.11328125,-52.24609375,-20.5078125,0.0
103464.063147791,-16.6015625,-43.9453125,-45.8984375,-109.375,0.0
103464.067054041,47.36328125,6.8359375,-31.73828125,1.46484375,0.0
103464.070960291,33.203125,-65.91796875,-26.3671875,110.83984375,0.0
103464.074866541,-68.84765625,-193.359375,-41.9921875,20.01953125,0.0
103464.078772791,-54.6875,-57.12890625,-49.31640625,-121.58203125,0.0
103464.082679041,38.0859375,72.75390625,-35.15625,-57.12890625,0.0
103464.086585291,47.36328125,-25.87890625,-19.53125,95.703125,0.0
103464.090491541,-39.0625,-111.81640625,-18.06640625,54.19921875,0.0
103464.094536333,-71.77734375,-72.265625,-20.5078125,-101.5625,0.0
103464.098442583,36.62109375,10.7421875,-15.625,-71.77734375,0.0
103464.102348833,65.4296875,-34.1796875,-28.80859375,97.16796875,0.0
103464.106255083,-9.27734375,-144.53125,-46.875,87.40234375,0.0
103464.110161333,-73.73046875,-151.3671875,-33.203125,-51.26953125,0.0
103464.114067583,24.4140625,-44.921875,-22.94921875,-90.33203125,0.0
103464.117973833,57.6171875,-94.7265625,-31.73828125,42.96875,0.0
103464.121880083,0.0,-121.09375,-20.5078125,91.30859375,0.0
103464.125786333,-88.37890625,-10.25390625,-9.765625,-24.4140625,0.0
103464.129692583,-30.2734375,-18.5546875,-15.625,-112.79296875,0.0
103464.133598833,51.26953125,4.39453125,-13.671875,1.953125,0.0
103464.137505083,30.2734375,1.46484375,-23.92578125,120.1171875,0.0
103464.137987208,-63.4765625,-77.1484375,-38.57421875,34.66796875,0.0
103464.141893458,-50.78125,-99.12109375,-33.69140625,-108.88671875,0.0
103464.145799708,41.50390625,-25.87890625,-25.87890625,-43.9453125,0.0
103464.149705958,50.29296875,31.73828125,-22.94921875,113.28125,0.0
103464.153612208,-17.08984375,-60.546875,-33.69140625,65.4296875,0.0
103464.157518458,-56.640625,-159.1796875,-40.0390625,-76.171875,0.0
103464.161424708,27.34375,-116.69921875,-28.80859375,-43.45703125,0.0
103464.165330958,86.42578125,51.26953125,-8.30078125,112.79296875,0.0
103464.169237208,26.3671875,61.03515625,-8.7890625,108.88671875,0.0
103464.173143458,-71.77734375,-120.60546875,-36.1328125,-36.62109375,0.0
103464.177049708,15.625,-62.5,-33.203125,-89.84375,0.0
103464.180955958,69.82421875,91.796875,-17.08984375,44.921875,0.0
103464.181668916,33.203125,18.06640625,-20.99609375,119.62890625,0.0
103464.185575166,-59.5703125,-116.2109375,-31.25,9.27734375,0.0
103464.189481416,-21.97265625,-49.8046875,-23.92578125,-80.56640625,0.0
103464.193387666,55.17578125,50.78125,-19.53125,24.90234375,0.0
103464.197293916,50.78125,19.53125,-33.203125,135.25390625,0.0
103464.201200166,-49.31640625,-163.57421875,-52.734375,72.265625,0.0
103464.205106416,-53.22265625,-117.67578125,-54.6875,-76.66015625,0.0
103464.209012666,60.546875,141.6015625,-31.25,-42.48046875,0.0
103464.212918916,69.3359375,58.59375,-22.94921875,117.1875,0.0
103464.216825166,-7.8125,-59.08203125,-17.08984375,101.5625,0.0
103464.220731416,-55.6640625,-28.80859375,-11.23046875,-55.17578125,0.0
103464.224637666,26.3671875,59.5703125,-13.18359375,-62.5,0.0
103464.229196333,65.91796875,39.55078125,-21.484375,97.65625,0.0
103464.233102583,20.5078125,-60.05859375,-24.90234375,125.0,0.0
103464.237008833,-61.03515625,-58.10546875,-26.85546875,-3.90625,0.0
103464.240915083,-2.9296875,31.73828125,-34.66796875,-84.9609375,0.0
103464.244821333,52.24609375,38.0859375,-36.1328125,36.62109375,0.0
103464.248727583,27.34375,-86.42578125,-31.73828125,133.7890625,0.0
103464.252633833,-60.05859375,-99.609375,-34.66796875,40.0390625,0.0
103464.256540083,-17.578125,15.13671875,-35.15625,-84.9609375,0.0
103464.260446333,65.91796875,8.30078125,-29.296875,-1.953125,0.0
103464.264352583,67.3828125,-56.640625,-19.53125,127.9296875,0.0
103464.268258833,-16.6015625,-19.04296875,-6.8359375,70.3125,0.0
103464.272165083,-30.76171875,-50.29296875,-21.484375,-69.3359375,0.0
103464.274741,63.4765625,0.0,-20.5078125,-23.92578125,0.0
103464.27864725,80.078125,68.359375,-9.27734375,133.7890625,0.0
103464.2825535,17.08984375,-9.27734375,-20.99609375,102.05078125,0.0
103464.28645975,-50.78125,-123.046875,-40.0390625,-42.48046875,0.0
103464.290366,23.4375,-56.640625,-47.36328125,-80.078125,0.0
103464.29427225,58.10546875,0.48828125,-33.203125,48.33984375,0.0
103464.2981785,13.18359375,-22.4609375,-16.6015625,89.35546875,0.0
103464.30208475,-73.2421875,-43.45703125,-16.11328125,-28.3203125,0.0
103464.305991,-12.6953125,-142.578125,-41.9921875,-91.796875,0.0
103464.30989725,51.26953125,-50.78125,-42.48046875,22.4609375,0.0
103464.3138035,22.4609375,80.078125,-23.92578125,108.3984375,0.0
103464.31770975,-67.3828125,-79.1015625,-42.96875,18.5546875,0.0
103464.322852208,-52.734375,-84.9609375,-65.91796875,-129.39453125,0.0
103464.326758458,25.87890625,7.32421875,-52.24609375,-65.91796875,0.0
103464.330664708,26.3671875,-4.8828125,-24.4140625,79.58984375,0.0
103464.334570958,-51.26953125,-92.7734375,-16.11328125,27.34375,0.0
103464.338477208,-73.2421875,-131.8359375,-34.66796875,-111.81640625,0.0
103464.342383458,19.53125,-50.78125,-54.6875,-82.51953125,0.0
103464.346289708,36.62109375,2.9296875,-54.19921875,61.5234375,0.0
103464.350195958,-34.66796875,-97.65625,-46.38671875,53.22265625,0.0
103464.354102208,-101.07421875,-230.46875,-56.15234375,-74.70703125,0.0
103464.358008458,-9.765625,-13.18359375,-50.29296875,-109.86328125,0.0
103464.361914708,44.43359375,84.9609375,-27.83203125,26.3671875,0.0
103464.365820958,6.8359375,-69.82421875,-22.4609375,85.9375,0.0
103464.368262291,-88.37890625,-134.765625,-25.390625,-11.71875,0.0
103464.372168541,-33.203125,-40.0390625,-28.80859375,-110.83984375,0.0
103464.376074791,50.29296875,22.94921875,-35.15625,-9.27734375,0.0
103464.379981041,36.1328125,-101.5625,-50.78125,108.3984375,0.0
103464.383887291,-50.29296875,-201.171875,-58.10546875,28.80859375,0.0
103464.387793541,-29.296875,-124.51171875,-54.19921875,-122.55859375,0.0
103464.391699791,68.359375,-11.71875,-47.36328125,-58.10546875,0.0
103464.395606041,77.1484375,-96.6796875,-43.9453125,112.79296875,0.0
103464.399512291,-30.2734375,-171.875,-41.50390625,45.8984375,0.0
103464.403418541,-90.33203125,-22.94921875,-40.52734375,-133.7890625,0.0
103464.407324791,11.23046875,12.6953125,-42.96875,-117.67578125,0.0
103464.411231041,40.0390625,-6.34765625,-37.109375,42.96875,0.0
103464.413155833,-5.37109375,-65.91796875,-46.38671875,58.59375,0.0
103464.417062083,-67.87109375,-104.4921875,-62.98828125,-54.19921875,0.0
103464.420968333,7.32421875,-46.875,-42.48046875,-104.4921875,0.0
103464.424874583,67.3828125,-2.9296875,-31.25,15.625,0.0
103464.428780833,28.80859375,-41.50390625,-46.38671875,87.40234375,0.0
103464.432687083,-76.66015625,-158.203125,-43.9453125,-15.625,0.0
103464.436593333,-32.71484375,-147.4609375,-28.80859375,-121.09375,0.0
103464.440499583,49.8046875,-58.59375,-18.5546875,-15.625,0.0
103464.444405833,39.0625,28.80859375,-18.5546875,102.05078125,0.0
103464.448312083,-50.78125,-31.73828125,-27.83203125,32.2265625,0.0
103464.452218333,-44.921875,-127.44140625,-28.3203125,-102.05078125,0.0
103464.456124583,57.6171875,-44.921875,-20.01953125,-59.5703125,0.0
103464.460814541,72.265625,40.0390625,-25.390625,93.75,0.0
103464.464720791,-1.46484375,-61.5234375,-30.2734375,75.68359375,0.0
103464.468627041,-57.12890625,-145.01953125,-31.73828125,-64.94140625,0.0
103464.472533291,30.76171875,-97.65625,-39.55078125,-75.1953125,0.0
103464.476439541,56.15234375,-12.20703125,-37.109375,65.91796875,0.0
103464.480345791,0.48828125,-51.7578125,-36.1328125,86.9140625,0.0
103464.484252041,-82.51953125,-232.421875,-49.8046875,-20.01953125,0.0
103464.488158291,-15.13671875,-127.44140625,-45.8984375,-92.7734375,0.0
103464.492064541,50.29296875,103.515625,-26.3671875,-0.48828125,0.0
103464.495970791,22.4609375,-25.87890625,-31.73828125,101.5625,0.0
103464.499877041,-78.61328125,-140.625,-40.0390625,16.11328125,0.0
103464.503783291,-49.31640625,-48.828125,-41.50390625,-126.46484375,0.0
103464.50715375,49.31640625,49.8046875,-42.96875,-62.98828125,0.0
103464.51106,54.6875,-25.87890625,-38.57421875,83.49609375,0.0
103464.51496625,-56.640625,-146.484375,-53.22265625,40.0390625,0.0
103464.5188725,-79.1015625,-81.0546875,-52.734375,-108.88671875,0.0
103464.52277875,26.85546875,22.4609375,-39.0625,-77.1484375,0.0
103464.526685,44.921875,-37.59765625,-36.62109375,76.66015625,0.0
103464.53059125,-27.83203125,-204.58984375,-30.2734375,62.01171875,0.0
103464.5344975,-93.75,-101.07421875,-31.73828125,-88.8671875,0.0
103464.53840375,-4.39453125,74.21875,-40.52734375,-115.72265625,0.0
103464.54231,34.66796875,14.6484375,-43.45703125,37.109375,0.0
103464.54621625,-16.6015625,-68.84765625,-48.828125,94.23828125,0.0
103464.5501225,-90.8203125,-89.35546875,-52.734375,-12.6953125,0.0
103464.552661375,-13.18359375,-88.37890625,-46.38671875,-96.19140625,0.0
103464.556567625,51.7578125,-46.875,-40.52734375,5.37109375,0.0
103464.560473875,25.87890625,-39.0625,-41.015625,107.421875,0.0
103464.564380125,-78.61328125,-135.25390625,-44.921875,19.04296875,0.0
103464.568286375,-57.12890625,-119.140625,-44.43359375,-113.28125,0.0
103464.572192625,40.52734375,-96.6796875,-62.98828125,-28.3203125,0.0
103464.576098875,49.8046875,-79.58984375,-64.453125,108.88671875,0.0
103464.580005125,-15.13671875,-44.921875,-47.36328125,68.84765625,0.0
103464.583911375,-39.0625,-86.42578125,-42.96875,-74.70703125,0.0
103464.587817625,38.57421875,-81.54296875,-39.0625,-67.3828125,0.0
103464.591723875,46.38671875,-12.20703125,-33.69140625,74.70703125,0.0
103464.595630125,-10.25390625,-31.73828125,-37.59765625,62.01171875,0.0
103464.596405583,-79.1015625,-145.99609375,-45.8984375,-59.5703125,0.0
103464.600311833,1.46484375,-83.0078125,-49.8046875,-86.9140625,0.0
103464.604218083,62.98828125,-7.32421875,-34.66796875,55.17578125,0.0
103464.608124333,25.390625,-62.98828125,-38.0859375,114.2578125,0.0
103464.612030583,-68.359375,-143.5546875,-46.38671875,-1.46484375,0.0
103464.615936833,-11.71875,-157.71484375,-37.109375,-95.703125,0.0
103464.619843083,61.5234375,-39.55078125,-33.69140625,-11.71875,0.0
103464.623749333,34.66796875,19.53125,-30.76171875,91.30859375,0.0
103464.627655583,-63.96484375,-148.92578125,-40.52734375,14.16015625,0.0
103464.631561833,-57.6171875,-207.03125,-50.78125,-124.0234375,0.0
103464.635468083,39.55078125,14.16015625,-38.57421875,-60.05859375,0.0
103464.639374333,56.15234375,11.23046875,-36.1328125,86.9140625,0.0
103464.669811291,-5.37109375,-166.9921875,-38.57421875,60.546875,0.0
103464.673717541,-31.73828125,-145.99609375,-21.484375,-70.3125,0.0
103464.677623791,67.87109375,8.30078125,-3.41796875,-58.59375,0.0
103464.681530041,100.5859375,-28.3203125,-6.8359375,107.91015625,0.0
103464.685436291,35.64453125,-150.390625,-9.765625,122.55859375,0.0
103464.689342541,-55.6640625,-176.7578125,-14.16015625,-21.484375,0.0
103464.693248791,17.08984375,-73.73046875,-7.8125,-78.125,0.0
103464.697155041,73.2421875,19.04296875,-12.20703125,33.69140625,0.0
103464.701061291,27.83203125,-146.97265625,-36.62109375,99.609375,0.0
103464.704967541,-70.3125,-218.26171875,-24.4140625,4.39453125,0.0
103464.708873791,-23.92578125,-4.39453125,-7.32421875,-116.69921875,0.0
103464.712780041,62.01171875,25.87890625,-5.37109375,-19.04296875,0.0
103464.691743208,48.33984375,-42.48046875,-9.765625,112.3046875,0.0
103464.695649458,-52.734375,-95.21484375,-16.11328125,34.66796875,0.0
103464.699555708,-46.38671875,-103.02734375,-32.2265625,-106.93359375,0.0
103464.703461958,59.5703125,-47.8515625,-50.78125,-56.640625,0.0
103464.707368208,64.94140625,-42.48046875,-47.36328125,89.84375,0.0
103464.711274458,-20.99609375,-132.32421875,-42.48046875,64.453125,0.0
103464.715180708,-86.42578125,-120.60546875,-38.57421875,-80.56640625,0.0
103464.719086958,0.48828125,-69.82421875,-30.76171875,-93.75,0.0
103464.722993208,45.41015625,-107.421875,-18.06640625,55.17578125,0.0
103464.726899458,10.25390625,-41.50390625,-13.18359375,79.1015625,0.0
103464.730805708,-70.3125,-68.84765625,-25.390625,-42.96875,0.0
103464.734711958,-2.9296875,-105.95703125,-44.43359375,-100.09765625,0.0
103464.736229291,62.01171875,-51.26953125,-50.78125,15.625,0.0
103464.740135541,26.85546875,-24.4140625,-27.83203125,88.8671875,0.0
103464.744041791,-69.82421875,-137.20703125,-20.01953125,0.0,0.0
103464.747948041,-39.55078125,-175.29296875,-30.2734375,-113.76953125,0.0
103464.751854291,40.52734375,-74.70703125,-41.015625,-32.2265625,0.0
103464.755760541,36.62109375,-91.30859375,-47.36328125,101.07421875,0.0
103464.759666791,-47.36328125,-148.4375,-43.9453125,43.45703125,0.0
103464.763573041,-58.59375,-235.3515625,-35.15625,-77.63671875,0.0
103464.767479291,39.55078125,-136.23046875,-21.484375,-34.66796875,0.0
103464.771385541,55.6640625,49.8046875,-25.87890625,95.21484375,0.0
103464.775291791,-11.23046875,-109.86328125,-27.34375,81.54296875,0.0
103464.779198041,-72.75390625,-166.015625,-14.6484375,-43.45703125,0.0
103464.810885,7.8125,-32.71484375,-21.97265625,-83.984375,0.0
103464.81479125,49.8046875,14.16015625,-20.01953125,41.9921875,0.0
103464.8186975,10.25390625,-107.91015625,-21.97265625,84.9609375,0.0
103464.82260375,-74.21875,-203.125,-30.76171875,-31.73828125,0.0
103464.82651,-14.16015625,-90.33203125,-24.90234375,-112.79296875,0.0
103464.83041625,52.734375,-36.1328125,-23.4375,-2.9296875,0.0
103464.8343225,31.25,-111.81640625,-27.83203125,91.30859375,0.0
103464.83822875,-68.84765625,-246.09375,-29.78515625,12.6953125,0.0
103464.842135,-45.8984375,-99.12109375,-19.04296875,-115.234375,0.0
103464.84604125,52.734375,61.03515625,-25.87890625,-52.24609375,0.0
103464.8499475,62.98828125,-41.50390625,-44.43359375,94.7265625,0.0
103464.85385375,-19.53125,-146.484375,-33.203125,53.22265625,0.0
103464.832894916,-58.10546875,-127.9296875,-17.08984375,-98.14453125,0.0
103464.836801166,32.71484375,-69.82421875,-29.296875,-81.54296875,0.0
103464.840707416,48.828125,-65.4296875,-44.43359375,71.77734375,0.0
103464.844613666,-20.5078125,-133.30078125,-55.6640625,62.01171875,0.0
103464.848519916,-91.796875,-148.4375,-53.22265625,-67.87109375,0.0
103464.852426166,-5.859375,-67.87109375,-34.66796875,-108.3984375,0.0
103464.856332416,39.55078125,-134.27734375,-37.59765625,29.78515625,0.0
103464.860238666,-7.32421875,-161.1328125,-45.41015625,90.8203125,0.0
103464.864144916,-100.5859375,-55.17578125,-48.828125,-32.71484375,0.0
103464.868051166,-46.875,-52.734375,-49.8046875,-129.39453125,0.0
103464.871957416,33.203125,-43.45703125,-47.36328125,-14.16015625,0.0
103464.875863666,28.80859375,-35.64453125,-48.33984375,103.515625,0.0
103464.920764166,-65.4296875,-97.65625,-50.78125,24.4140625,0.0
103464.90625875,-55.17578125,-123.53515625,-56.640625,-107.91015625,0.0
103464.910165,41.015625,-55.6640625,-55.6640625,-53.7109375,0.0
103464.91407125,43.45703125,-29.296875,-50.78125,87.40234375,0.0
103464.9179775,-35.15625,-153.3203125,-53.22265625,49.31640625,0.0
103464.92188375,-80.078125,-201.66015625,-48.33984375,-87.890625,0.0
103464.92579,4.8828125,-141.11328125,-45.8984375,-80.078125,0.0
103464.92969625,29.78515625,13.671875,-45.41015625,60.546875,0.0
103464.9336025,-20.01953125,2.44140625,-48.33984375,70.3125,0.0
103464.93750875,-95.21484375,-154.78515625,-46.875,-54.6875,0.0
103464.941415,-17.578125,-90.8203125,-48.828125,-117.67578125,0.0
103464.94532125,30.76171875,29.78515625,-45.41015625,0.48828125,0.0
103464.953742125,-14.6484375,-40.52734375,-41.015625,70.3125,0.0
103464.957648375,-105.95703125,-177.734375,-48.33984375,-20.99609375,0.0
103464.961554625,-64.94140625,-110.3515625,-50.29296875,-135.25390625,0.0
103464.965460875,22.94921875,-17.08984375,-47.36328125,-53.22265625,0.0
103464.963288083,25.87890625,-41.015625,-42.48046875,90.33203125,0.0
103464.967194333,-47.36328125,-200.68359375,-43.9453125,43.9453125,0.0
103464.971100583,-46.875,-199.70703125,-47.36328125,-95.703125,0.0
103464.975006833,34.1796875,34.1796875,-37.109375,-55.17578125,0.0
103464.978913083,53.22265625,40.52734375,-38.0859375,99.609375,0.0
103464.982819333,-22.4609375,-98.6328125,-36.1328125,56.15234375,0.0
103464.986725583,-78.125,-109.375,-23.4375,-94.7265625,0.0
103464.990631833,14.6484375,2.44140625,-25.390625,-91.796875,0.0
103464.993695625,49.31640625,-0.48828125,-34.1796875,60.05859375,0.0
103464.997601875,6.34765625,-96.6796875,-41.015625,92.7734375,0.0
103465.001508125,-68.359375,-104.98046875,-36.62109375,-16.6015625,0.0
103465.005414375,5.37109375,-25.390625,-20.01953125,-86.9140625,0.0
103465.009320625,76.171875,-4.39453125,-18.06640625,34.66796875,0.0
103465.013226875,56.15234375,-101.07421875,-22.4609375,137.20703125,0.0
