lsl_timestamp,TP9,AF7,AF8,TP10,Right AUX
97303.991009041,-139.16015625,-51.7578125,-74.70703125,38.0859375,0.0
97303.994915291,-103.515625,-50.78125,-75.68359375,-8.7890625,0.0
97303.998821541,85.9375,-47.36328125,-74.21875,-41.9921875,0.0
97304.002727791,122.0703125,-45.41015625,-77.1484375,-21.484375,0.0
97304.006634041,-42.48046875,-46.875,-80.078125,8.30078125,0.0
97304.010540291,-127.44140625,-48.828125,-79.1015625,-3.90625,0.0
97304.014446541,67.3828125,-46.875,-81.54296875,-29.296875,0.0
97304.018352791,134.27734375,-42.96875,-82.03125,-20.5078125,0.0
97304.022259041,-14.16015625,-46.875,-80.078125,0.48828125,0.0
97304.026165291,-172.36328125,-51.26953125,-73.2421875,-0.9765625,0.0
97304.030071541,16.11328125,-45.8984375,-73.2421875,-45.8984375,0.0
97304.033977791,155.2734375,-45.41015625,-76.66015625,-52.24609375,0.0
97304.039806875,79.1015625,-47.8515625,-75.1953125,-8.30078125,0.0
97304.043713125,-119.140625,-48.828125,-73.73046875,15.13671875,0.0
97304.047619375,-41.9921875,-49.31640625,-72.265625,-14.16015625,0.0
97304.051525625,98.14453125,-47.36328125,-72.75390625,-30.2734375,0.0
97304.055431875,65.4296875,-45.41015625,-69.82421875,0.9765625,0.0
97304.059338125,-117.67578125,-50.78125,-71.77734375,15.13671875,0.0
97304.063244375,-104.98046875,-50.78125,-77.63671875,-25.390625,0.0
97304.067150625,87.40234375,-45.41015625,-72.265625,-52.734375,0.0
97304.071056875,109.375,-42.96875,-66.89453125,-14.16015625,0.0
97304.074963125,-76.66015625,-42.96875,-70.80078125,12.6953125,0.0
97304.078869375,-160.15625,-42.96875,-67.87109375,-9.27734375,0.0
97304.082775625,30.2734375,-41.9921875,-69.82421875,-40.52734375,0.0
97304.088680333,85.44921875,-40.0390625,-76.171875,-28.80859375,0.0
97304.092586583,-29.78515625,-43.45703125,-70.80078125,6.34765625,0.0
97304.096492833,-184.08203125,-48.33984375,-70.80078125,0.0,0.0
97304.100399083,-47.36328125,-48.828125,-71.77734375,-51.26953125,0.0
97304.104305333,83.984375,-51.26953125,-70.80078125,-54.6875,0.0
97304.108211583,37.109375,-50.29296875,-76.66015625,-15.13671875,0.0
97304.112117833,-168.45703125,-45.8984375,-78.125,-3.90625,0.0
97304.116024083,-123.046875,-40.52734375,-76.66015625,-40.52734375,0.0
97304.119930333,43.45703125,-34.66796875,-80.078125,-53.22265625,0.0
97304.123836583,57.6171875,-29.296875,-69.82421875,-20.01953125,0.0
97304.127742833,-118.1640625,-30.2734375,-64.94140625,-1.953125,0.0
97304.131649083,-145.99609375,-35.64453125,-63.96484375,-34.66796875,0.0
97304.12972425,48.828125,-39.55078125,-60.05859375,-62.01171875,0.0
97304.1336305,107.91015625,-41.015625,-57.12890625,-39.0625,0.0
97304.13753675,-54.19921875,-42.48046875,-58.59375,-1.953125,0.0
97304.141443,-181.640625,-42.96875,-66.89453125,-9.765625,0.0
97304.14534925,4.8828125,-41.015625,-67.87109375,-49.31640625,0.0
97304.1492555,87.890625,-38.0859375,-64.453125,-44.43359375,0.0
97304.15316175,-11.71875,-42.96875,-64.94140625,-16.11328125,0.0
97304.157068,-188.96484375,-48.33984375,-56.640625,8.30078125,0.0
97304.16097425,-68.84765625,-37.109375,-50.78125,-9.27734375,0.0
97304.1648805,67.87109375,-33.203125,-56.15234375,-49.31640625,0.0
97304.16878675,11.71875,-35.64453125,-59.5703125,-30.76171875,0.0
97304.172693,-187.5,-37.59765625,-62.5,-6.34765625,0.0
97304.179051916,-139.16015625,-42.96875,-68.359375,-49.31640625,0.0
97304.182958166,57.12890625,-46.875,-73.2421875,-75.68359375,0.0
97304.186864416,49.31640625,-37.109375,-74.70703125,-42.96875,0.0
97304.190770666,-154.296875,-30.76171875,-73.2421875,-20.99609375,0.0
97304.194676916,-202.1484375,-41.015625,-69.3359375,-34.66796875,0.0
97304.198583166,-7.32421875,-38.57421875,-70.3125,-61.03515625,0.0
97304.202489416,53.7109375,-32.71484375,-66.40625,-53.7109375,0.0
97304.206395666,-80.56640625,-33.69140625,-59.5703125,-24.4140625,0.0
97304.210301916,-209.9609375,-37.109375,-59.5703125,-35.64453125,0.0
97304.214208166,-21.97265625,-38.0859375,-58.59375,-73.2421875,0.0
97304.218114416,95.703125,-30.76171875,-58.10546875,-69.82421875,0.0
97304.222020666,21.484375,-30.76171875,-55.6640625,-40.52734375,0.0
97304.224996666,-159.66796875,-39.0625,-57.12890625,-36.62109375,0.0
97304.228902916,-58.10546875,-41.015625,-58.10546875,-68.84765625,0.0
97304.232809166,82.51953125,-41.9921875,-53.22265625,-55.6640625,0.0
97304.236715416,54.19921875,-44.43359375,-54.19921875,-10.25390625,0.0
97304.240621666,-128.41796875,-46.875,-52.734375,-12.6953125,0.0
97304.244527916,-136.71875,-42.48046875,-45.8984375,-49.31640625,0.0
97304.248434166,36.1328125,-32.2265625,-38.0859375,-66.89453125,0.0
97304.252340416,73.2421875,-32.2265625,-33.69140625,-37.59765625,0.0
97304.256246666,-89.84375,-39.55078125,-32.71484375,-20.5078125,0.0
97304.260152916,-173.828125,-40.0390625,-34.66796875,-52.24609375,0.0
97304.264059166,17.08984375,-34.1796875,-34.1796875,-75.1953125,0.0
97304.267965416,96.19140625,-36.1328125,-32.2265625,-56.640625,0.0
97304.272189625,-36.1328125,-41.015625,-28.3203125,-18.5546875,0.0
97304.276095875,-202.63671875,-35.64453125,-25.87890625,-11.71875,0.0
97304.280002125,-38.0859375,-25.390625,-24.4140625,-52.24609375,0.0
97304.283908375,85.9375,-22.4609375,-20.5078125,-58.10546875,0.0
97304.287814625,9.27734375,-27.83203125,-20.99609375,-34.66796875,0.0
97304.291720875,-177.24609375,-30.76171875,-17.08984375,-19.04296875,0.0
97304.295627125,-89.35546875,-28.3203125,-19.53125,-50.78125,0.0
97304.299533375,88.37890625,-28.80859375,-22.94921875,-85.9375,0.0
97304.303439625,83.49609375,-32.2265625,-20.99609375,-51.7578125,0.0
97304.307345875,-131.8359375,-32.71484375,-23.92578125,-15.625,0.0
97304.311252125,-128.90625,-27.83203125,-22.4609375,-46.38671875,0.0
97304.315158375,88.37890625,-30.2734375,-19.53125,-74.21875,0.0
97304.320241916,136.23046875,-39.55078125,-18.06640625,-47.36328125,0.0
97304.324148166,-45.41015625,-37.59765625,-15.625,-14.16015625,0.0
97304.328054416,-189.453125,-36.1328125,-15.625,-22.94921875,0.0
97304.331960666,4.39453125,-33.203125,-13.671875,-48.828125,0.0
97304.335866916,94.23828125,-30.76171875,-9.27734375,-31.25,0.0
97304.339773166,-32.2265625,-39.0625,-9.27734375,-9.27734375,0.0
97304.343679416,-209.9609375,-42.48046875,-10.7421875,-8.7890625,0.0
97304.347585666,-53.22265625,-36.62109375,-10.25390625,-44.43359375,0.0
97304.351491916,91.796875,-35.64453125,-14.16015625,-51.26953125,0.0
97304.355398166,39.0625,-35.15625,-14.6484375,-9.765625,0.0
97304.359304416,-145.5078125,-36.1328125,-11.71875,1.46484375,0.0
97304.363210666,-89.35546875,-33.69140625,-10.25390625,-37.109375,0.0
97304.365616291,68.359375,-33.203125,-10.25390625,-57.12890625,0.0
97304.369522541,67.3828125,-29.78515625,-7.32421875,-35.64453125,0.0
97304.373428791,-119.62890625,-29.296875,-6.8359375,-16.6015625,0.0
97304.377335041,-163.0859375,-35.64453125,-12.6953125,-22.4609375,0.0
97304.381241291,33.203125,-35.64453125,-18.5546875,-54.6875,0.0
97304.385147541,88.8671875,-36.62109375,-17.08984375,-59.08203125,0.0
97304.389053791,-62.01171875,-35.15625,-12.20703125,-24.90234375,0.0
97304.392960041,-183.59375,-32.71484375,-15.13671875,-20.01953125,0.0
97304.396866291,0.48828125,-31.25,-15.13671875,-49.31640625,0.0
97304.400772541,89.84375,-33.203125,-11.71875,-40.52734375,0.0
97304.404678791,2.44140625,-35.64453125,-13.671875,-1.953125,0.0
97304.408585041,-169.921875,-32.2265625,-20.5078125,0.48828125,0.0
97304.414664666,-50.29296875,-26.3671875,-19.04296875,-41.015625,0.0
97304.418570916,104.98046875,-32.71484375,-22.4609375,-49.8046875,0.0
97304.422477166,64.94140625,-35.15625,-22.94921875,-15.13671875,0.0
97304.426383416,-147.4609375,-29.296875,-22.4609375,-11.71875,0.0
97304.430289666,-127.44140625,-34.1796875,-30.2734375,-51.26953125,0.0
97304.434195916,56.15234375,-36.62109375,-34.66796875,-57.12890625,0.0
97304.438102166,78.61328125,-36.1328125,-33.69140625,-17.08984375,0.0
97304.442008416,-109.375,-36.1328125,-31.73828125,9.27734375,0.0
97304.445914666,-189.453125,-38.0859375,-36.1328125,-1.46484375,0.0
97304.449820916,6.8359375,-39.0625,-36.1328125,-20.01953125,0.0
97304.453727166,98.14453125,-34.1796875,-37.59765625,-15.625,0.0
97304.478823708,-31.25,-39.0625,-46.38671875,2.44140625,0.0
97304.459445166,-189.453125,-43.45703125,-49.8046875,-15.13671875,0.0
97304.463351416,-22.94921875,-37.109375,-50.29296875,-54.19921875,0.0
97304.467257666,102.05078125,-37.59765625,-52.24609375,-38.0859375,0.0
97304.471163916,17.578125,-42.96875,-59.08203125,1.46484375,0.0
97304.475070166,-181.640625,-42.48046875,-65.4296875,4.8828125,0.0
97304.478976416,-75.1953125,-40.0390625,-61.03515625,-23.92578125,0.0
97304.482882666,96.6796875,-38.0859375,-58.10546875,-41.015625,0.0
97304.486788916,79.58984375,-37.109375,-60.05859375,-16.6015625,0.0
97304.490695166,-115.72265625,-41.015625,-61.5234375,14.16015625,0.0
97304.494601416,-107.91015625,-38.0859375,-60.05859375,-17.08984375,0.0
97304.498507666,84.9609375,-36.1328125,-58.59375,-46.875,0.0
97304.502413916,125.48828125,-36.1328125,-58.10546875,-12.6953125,0.0
97304.508682,-46.875,-36.1328125,-56.15234375,19.04296875,0.0
97304.51258825,-149.4140625,-44.921875,-55.6640625,-6.8359375,0.0
97304.5164945,28.80859375,-46.875,-61.03515625,-52.734375,0.0
97304.52040075,94.7265625,-38.0859375,-61.5234375,-45.8984375,0.0
97304.524307,-22.4609375,-38.57421875,-56.640625,-9.765625,0.0
97304.52821325,-179.6875,-39.0625,-57.6171875,-2.9296875,0.0
97304.5321195,-20.99609375,-38.0859375,-62.01171875,-36.1328125,0.0
97304.53602575,104.98046875,-40.0390625,-59.08203125,-38.57421875,0.0
97304.539932,51.7578125,-39.0625,-50.29296875,3.41796875,0.0
97304.54383825,-131.8359375,-39.55078125,-49.8046875,12.6953125,0.0
97304.5477445,-86.42578125,-42.96875,-55.17578125,-26.85546875,0.0
97304.55165075,51.26953125,-39.55078125,-60.05859375,-43.9453125,0.0
97304.574800625,45.41015625,-35.64453125,-57.12890625,-6.34765625,0.0
97304.56081825,-129.8828125,-36.62109375,-58.10546875,21.97265625,0.0
97304.5647245,-153.80859375,-42.96875,-66.40625,-9.765625,0.0
97304.56863075,36.62109375,-53.7109375,-62.01171875,-47.36328125,0.0
97304.572537,89.84375,-53.7109375,-54.19921875,-24.4140625,0.0
97304.57644325,-73.73046875,-45.41015625,-50.78125,18.5546875,0.0
97304.5803495,-190.4296875,-42.48046875,-44.921875,4.39453125,0.0
97304.58425575,1.46484375,-39.55078125,-43.9453125,-31.25,0.0
97304.588162,97.16796875,-36.62109375,-46.875,-29.296875,0.0
97304.59206825,-13.671875,-32.71484375,-48.828125,-12.20703125,0.0
97304.5959745,-211.9140625,-30.76171875,-47.36328125,-20.5078125,0.0
97304.59988075,-62.98828125,-30.2734375,-41.50390625,-43.45703125,0.0
97304.604410125,120.1171875,-31.25,-37.59765625,-43.45703125,0.0
97304.608316375,65.4296875,-34.66796875,-31.73828125,-23.4375,0.0
97304.612222625,-181.640625,-36.1328125,-23.4375,-10.25390625,0.0
97304.616128875,-144.04296875,-34.66796875,-16.6015625,-42.96875,0.0
97304.620035125,63.4765625,-35.64453125,-22.4609375,-55.17578125,0.0
97304.62179575,75.68359375,-37.59765625,-26.85546875,-20.5078125,0.0
97304.625702,-147.4609375,-32.2265625,-23.4375,-6.8359375,0.0
97304.62960825,-216.30859375,-32.2265625,-20.5078125,-33.69140625,0.0
97304.6335145,31.25,-33.203125,-20.5078125,-76.66015625,0.0
97304.63742075,116.2109375,-29.296875,-13.671875,-61.5234375,0.0
97304.641327,-72.265625,-25.87890625,-5.859375,-20.99609375,0.0
97304.64523325,-263.671875,-31.73828125,-11.23046875,-33.203125,0.0
97304.650168791,-76.171875,-38.0859375,-7.32421875,-58.59375,0.0
97304.654075041,60.05859375,-35.15625,1.46484375,-49.31640625,0.0
97304.657981291,-57.12890625,-40.0390625,1.46484375,-50.29296875,0.0
97304.661887541,-279.296875,-48.33984375,3.41796875,-62.98828125,0.0
97304.665793791,-152.83203125,-43.45703125,11.23046875,-82.03125,0.0
97304.669700041,41.015625,-38.57421875,11.23046875,-78.61328125,0.0
97304.673606291,-18.5546875,-30.2734375,12.6953125,-47.8515625,0.0
97304.677512541,-280.76171875,-25.87890625,15.13671875,-44.43359375,0.0
97304.681418791,-236.81640625,-27.34375,20.5078125,-76.66015625,0.0
97304.685325041,0.0,-28.80859375,30.76171875,-80.56640625,0.0
97304.689231291,5.859375,-36.1328125,31.25,-33.69140625,0.0
97304.693137541,-209.9609375,-40.52734375,28.80859375,-2.9296875,0.0
97304.696341333,-287.109375,-39.0625,33.69140625,-32.71484375,0.0
97304.700247583,-59.08203125,-38.0859375,38.57421875,-62.01171875,0.0
97304.704153833,38.57421875,-38.0859375,40.52734375,-39.55078125,0.0
97304.708060083,-102.5390625,-38.0859375,44.921875,-22.4609375,0.0
97304.711966333,-307.12890625,-40.0390625,45.41015625,-30.76171875,0.0
97304.715872583,-145.99609375,-35.64453125,45.41015625,-37.59765625,0.0
97304.719778833,15.625,-36.62109375,43.9453125,-31.73828125,0.0
97304.723685083,-49.8046875,-36.62109375,43.45703125,-20.99609375,0.0
97304.727591333,-273.92578125,-36.1328125,39.55078125,-12.20703125,0.0
97304.731497583,-189.94140625,-37.59765625,28.3203125,-29.296875,0.0
97304.735403833,26.3671875,-38.57421875,18.06640625,-28.3203125,0.0
97304.739310083,27.83203125,-32.71484375,14.6484375,-4.8828125,0.0
97304.742671125,-218.75,-33.203125,5.37109375,-4.8828125,0.0
97304.746577375,-233.88671875,-34.1796875,-6.8359375,-47.36328125,0.0
97304.750483625,24.4140625,-33.203125,-9.765625,-60.546875,0.0
97304.754389875,88.8671875,-35.64453125,-10.7421875,-31.73828125,0.0
97304.758296125,-125.48828125,-33.203125,-13.18359375,-24.90234375,0.0
97304.762202375,-263.671875,-38.57421875,-18.06640625,-34.66796875,0.0
97304.766108625,-25.87890625,-37.109375,-22.4609375,-42.48046875,0.0
97304.770014875,113.28125,-31.73828125,-24.90234375,-24.4140625,0.0
97304.773921125,-29.296875,-36.62109375,-28.80859375,2.44140625,0.0
97304.777827375,-244.62890625,-36.62109375,-36.62109375,-14.16015625,0.0
97304.781733625,-75.68359375,-33.203125,-46.38671875,-66.89453125,0.0
97304.785639875,83.984375,-31.73828125,-54.19921875,-74.21875,0.0
97304.7883635,-15.13671875,-32.71484375,-61.5234375,-42.96875,0.0
97304.79226975,-233.3984375,-30.2734375,-71.77734375,-47.8515625,0.0
97304.796176,-143.5546875,-28.80859375,-75.1953125,-86.42578125,0.0
97304.80008225,44.921875,-34.66796875,-73.73046875,-89.84375,0.0
97304.8039885,38.57421875,-35.64453125,-74.70703125,-46.875,0.0
97304.80789475,-216.796875,-34.66796875,-81.0546875,-25.87890625,0.0
97304.811801,-273.4375,-35.64453125,-90.33203125,-58.59375,0.0
97304.81570725,12.6953125,-32.2265625,-91.30859375,-78.61328125,0.0
97304.8196135,86.42578125,-26.3671875,-93.26171875,-37.59765625,0.0
97304.82351975,-126.953125,-27.34375,-95.21484375,-19.53125,0.0
97304.827426,-251.46484375,-31.73828125,-92.7734375,-55.6640625,0.0
97304.83133225,-13.18359375,-31.73828125,-89.84375,-63.96484375,0.0
97304.837450708,131.8359375,-26.85546875,-91.30859375,-27.83203125,0.0
97304.841356958,15.13671875,-26.85546875,-96.6796875,-4.39453125,0.0
97304.845263208,-225.09765625,-28.3203125,-97.65625,-33.203125,0.0
97304.849169458,-86.9140625,-29.296875,-97.65625,-65.91796875,0.0
97304.853075708,110.3515625,-32.71484375,-100.5859375,-48.828125,0.0
97304.856981958,51.26953125,-27.34375,-96.6796875,-8.7890625,0.0
97304.860888208,-195.3125,-29.78515625,-104.00390625,-7.32421875,0.0
97304.864794458,-140.625,-30.2734375,-109.375,-39.55078125,0.0
97304.868700708,87.40234375,-23.92578125,-105.46875,-20.01953125,0.0
97304.872606958,105.46875,-26.3671875,-105.95703125,12.20703125,0.0
97304.876513208,-135.25390625,-28.80859375,-107.421875,7.32421875,0.0
97304.880419458,-218.75,-26.85546875,-112.3046875,-19.04296875,0.0
97304.904627916,41.9921875,-27.34375,-117.1875,-33.69140625,0.0
97304.889582583,138.18359375,-32.71484375,-123.046875,-19.53125,0.0
97304.893488833,-35.15625,-28.3203125,-116.2109375,0.0,0.0
97304.897395083,-213.8671875,-27.34375,-113.28125,-16.11328125,0.0
97304.901301333,0.9765625,-34.66796875,-114.2578125,-35.64453125,0.0
97304.905207583,154.78515625,-35.15625,-106.4453125,-9.27734375,0.0
97304.909113833,27.34375,-34.1796875,-106.93359375,6.34765625,0.0
97304.913020083,-205.56640625,-29.296875,-109.375,-0.9765625,0.0
97304.916926333,-83.0078125,-26.85546875,-104.00390625,-21.484375,0.0
97304.920832583,138.671875,-29.296875,-102.5390625,-24.90234375,0.0
97304.924738833,114.74609375,-29.296875,-110.83984375,-0.48828125,0.0
97304.928645083,-143.06640625,-32.2265625,-117.67578125,-1.953125,0.0
97304.930360916,-144.04296875,-32.2265625,-117.1875,-22.4609375,0.0
97304.934267166,109.86328125,-28.80859375,-110.83984375,-3.90625,0.0
97304.938173416,154.296875,-26.3671875,-108.88671875,13.18359375,0.0
97304.942079666,-85.44921875,-28.3203125,-113.28125,0.9765625,0.0
97304.945985916,-200.68359375,-30.2734375,-113.28125,-28.80859375,0.0
97304.949892166,52.734375,-27.34375,-114.74609375,-54.19921875,0.0
97304.953798416,174.8046875,-23.4375,-117.67578125,-28.80859375,0.0
97304.957704666,3.41796875,-22.4609375,-119.140625,-15.13671875,0.0
97304.961610916,-202.1484375,-27.34375,-116.2109375,-42.96875,0.0
97304.965517166,-3.41796875,-30.76171875,-112.79296875,-58.10546875,0.0
97304.969423416,164.55078125,-28.3203125,-111.328125,-31.25,0.0
97304.973329666,70.3125,-24.4140625,-112.79296875,-0.9765625,0.0
97304.995298083,-168.45703125,-23.4375,-113.76953125,-11.71875,0.0
97304.98013975,-69.3359375,-26.3671875,-110.3515625,-49.8046875,0.0
97304.984046,146.484375,-28.3203125,-104.4921875,-43.45703125,0.0
97304.98795225,121.09375,-33.69140625,-98.6328125,-14.16015625,0.0
97304.9918585,-127.9296875,-39.55078125,-96.19140625,-8.30078125,0.0
97304.99576475,-144.04296875,-39.0625,-90.33203125,-29.296875,0.0
97304.999671,99.609375,-37.59765625,-83.0078125,-40.52734375,0.0
97305.00357725,143.06640625,-37.59765625,-74.21875,-16.11328125,0.0
97305.0074835,-52.24609375,-37.59765625,-58.10546875,2.9296875,0.0
97305.01138975,-174.31640625,-33.203125,-45.41015625,-33.69140625,0.0
97305.015296,51.7578125,-30.2734375,-36.1328125,-62.01171875,0.0
97305.01920225,168.45703125,-35.15625,-26.85546875,-30.76171875,0.0
97305.018778625,27.34375,-40.0390625,-17.08984375,-4.8828125,0.0
97305.022684875,-186.03515625,-37.109375,-10.25390625,-19.53125,0.0
97305.026591125,-15.625,-36.62109375,-2.44140625,-51.26953125,0.0
97305.030497375,177.24609375,-35.64453125,6.8359375,-34.1796875,0.0
97305.034403625,103.515625,-30.76171875,16.6015625,9.765625,0.0
97305.038309875,-150.390625,-34.1796875,20.5078125,-5.859375,0.0
97305.042216125,-105.95703125,-39.0625,25.390625,-37.59765625,0.0
97305.046122375,132.8125,-38.57421875,29.296875,-38.0859375,0.0
97305.050028625,153.3203125,-41.015625,33.69140625,-24.90234375,0.0
97305.053934875,-98.6328125,-41.9921875,41.9921875,-14.6484375,0.0
97305.057841125,-144.53125,-41.50390625,44.921875,-38.57421875,0.0
97305.061747375,133.30078125,-42.48046875,50.29296875,-50.78125,0.0
97305.059439291,218.75,-40.52734375,54.19921875,-22.4609375,0.0
97305.063345541,-15.13671875,-40.0390625,56.640625,-5.37109375,0.0
97305.067251791,-221.19140625,-40.52734375,62.01171875,-28.3203125,0.0
97305.071158041,3.41796875,-40.52734375,65.4296875,-43.9453125,0.0
97305.075064291,157.71484375,-42.48046875,63.4765625,-21.484375,0.0
97305.078970541,31.25,-42.48046875,62.98828125,-4.39453125,0.0
97305.082876791,-195.80078125,-45.41015625,65.91796875,-11.23046875,0.0
97305.086783041,-46.875,-49.8046875,68.359375,-38.57421875,0.0
97305.090689291,150.87890625,-52.734375,68.84765625,-31.25,0.0
97305.094595541,88.37890625,-51.26953125,68.359375,11.23046875,0.0
97305.098501791,-164.55078125,-51.26953125,70.3125,17.578125,0.0
97305.102408041,-112.79296875,-47.36328125,77.63671875,-32.71484375,0.0
97305.105224708,152.34375,-36.62109375,80.56640625,-49.31640625,0.0
97305.109130958,172.36328125,-38.0859375,80.078125,-26.3671875,0.0
97305.113037208,-83.0078125,-45.41015625,72.75390625,-21.484375,0.0
97305.116943458,-180.17578125,-42.48046875,67.87109375,-37.59765625,0.0
97305.120849708,50.78125,-40.0390625,68.359375,-40.0390625,0.0
97305.124755958,145.5078125,-39.0625,65.4296875,-7.8125,0.0
97305.128662208,-11.71875,-41.9921875,60.546875,3.90625,0.0
97305.132568458,-206.54296875,-49.31640625,58.10546875,-23.4375,0.0
97305.136474708,-5.859375,-47.8515625,59.5703125,-48.828125,0.0
97305.140380958,166.9921875,-41.015625,56.640625,-22.94921875,0.0
97305.144287208,81.0546875,-42.48046875,54.19921875,3.90625,0.0
97305.148193458,-159.1796875,-43.45703125,50.29296875,-9.765625,0.0
97305.151266375,-60.546875,-40.0390625,44.921875,-39.0625,0.0
97305.155172625,153.3203125,-39.55078125,44.921875,-43.9453125,0.0
97305.159078875,140.13671875,-34.1796875,45.41015625,-9.27734375,0.0
97305.162985125,-96.19140625,-35.64453125,47.8515625,-0.9765625,0.0
97305.166891375,-117.1875,-37.109375,46.38671875,-40.0390625,0.0
97305.170797625,111.328125,-31.25,40.52734375,-47.36328125,0.0
97305.174703875,152.83203125,-33.203125,34.66796875,-8.7890625,0.0
97305.178610125,-66.89453125,-41.015625,31.25,-0.48828125,0.0
97305.182516375,-187.98828125,-39.55078125,35.64453125,-20.99609375,0.0
97305.186422625,54.19921875,-32.2265625,38.57421875,-36.62109375,0.0
97305.190328875,179.19921875,-34.1796875,33.69140625,-29.296875,0.0
97305.194235125,21.97265625,-40.52734375,32.71484375,-9.765625,0.0
97305.197339916,-190.91796875,-41.50390625,33.69140625,-23.4375,0.0
97305.201246166,-7.32421875,-39.0625,35.15625,-41.015625,0.0
97305.205152416,177.24609375,-37.109375,32.2265625,-20.5078125,0.0
97305.209058666,94.23828125,-36.1328125,31.73828125,6.34765625,0.0
97305.212964916,-168.45703125,-39.0625,34.66796875,8.30078125,0.0
97305.216871166,-94.23828125,-44.43359375,33.203125,-19.04296875,0.0
97305.220777416,131.34765625,-47.8515625,34.66796875,-25.390625,0.0
97305.224683666,117.67578125,-41.50390625,39.0625,3.90625,0.0
97305.228589916,-122.0703125,-35.15625,41.9921875,10.7421875,0.0
97305.232496166,-141.11328125,-35.15625,42.48046875,-29.296875,0.0
97305.236402416,108.3984375,-33.69140625,50.29296875,-41.50390625,0.0
97305.240308666,177.734375,-38.57421875,53.7109375,-10.7421875,0.0
97305.243400625,-32.71484375,-38.57421875,46.875,8.30078125,0.0
97305.247306875,-191.40625,-36.1328125,50.78125,-18.06640625,0.0
97305.251213125,33.203125,-35.64453125,59.5703125,-44.921875,0.0
97305.255119375,173.33984375,-31.73828125,62.98828125,-19.04296875,0.0
97305.259025625,45.8984375,-31.73828125,57.12890625,3.90625,0.0
97305.262931875,-173.828125,-29.296875,58.10546875,5.859375,0.0
97305.266838125,-20.99609375,-24.90234375,73.73046875,-29.296875,0.0
97305.270744375,152.34375,-31.25,78.61328125,-27.83203125,0.0
97305.274650625,81.0546875,-40.0390625,80.56640625,20.5078125,0.0
97305.278556875,-152.34375,-40.0390625,87.40234375,17.578125,0.0
97305.282463125,-83.49609375,-40.52734375,87.40234375,-5.859375,0.0
97305.286369375,164.0625,-39.55078125,87.890625,0.0,0.0
97305.314768583,186.03515625,-41.015625,90.33203125,15.625,0.0
97305.318674833,-41.9921875,-45.41015625,92.7734375,16.6015625,0.0
97305.322581083,-119.140625,-49.8046875,91.30859375,1.46484375,0.0
97305.326487333,116.2109375,-50.29296875,92.28515625,6.34765625,0.0
97305.330393583,223.14453125,-43.9453125,91.30859375,43.9453125,0.0
97305.334299833,31.25,-42.96875,83.0078125,42.48046875,0.0
97305.338206083,-174.31640625,-52.24609375,75.1953125,-0.9765625,0.0
97305.342112333,22.94921875,-50.29296875,77.63671875,4.39453125,0.0
97305.346018583,169.43359375,-43.45703125,73.73046875,32.2265625,0.0
97305.349924833,52.734375,-41.9921875,69.3359375,35.64453125,0.0
97305.353831083,-187.5,-41.015625,70.80078125,17.578125,0.0
97305.357737333,-48.828125,-42.48046875,67.87109375,-19.04296875,0.0
97305.336498791,155.76171875,-42.96875,65.4296875,-7.8125,0.0
97305.340405041,99.609375,-43.9453125,57.6171875,26.85546875,0.0
97305.344311291,-166.50390625,-44.921875,49.8046875,36.1328125,0.0
97305.348217541,-147.94921875,-40.0390625,48.33984375,0.48828125,0.0
97305.352123791,104.00390625,-37.109375,47.8515625,-21.484375,0.0
97305.356030041,139.6484375,-43.45703125,41.015625,3.90625,0.0
97305.359936291,-83.0078125,-47.8515625,31.25,13.671875,0.0
97305.363842541,-179.19921875,-47.8515625,29.296875,-14.16015625,0.0
97305.367748791,83.984375,-43.9453125,32.71484375,-25.87890625,0.0
97305.371655041,187.98828125,-39.55078125,27.34375,-7.8125,0.0
97305.375561291,9.765625,-39.55078125,23.4375,-1.953125,0.0
97305.379467541,-191.40625,-41.9921875,20.99609375,-13.671875,0.0
97305.405048708,-5.859375,-48.33984375,15.625,-23.92578125,0.0
97305.408954958,156.73828125,-48.828125,11.23046875,4.8828125,0.0
97305.412861208,33.203125,-42.96875,11.71875,26.3671875,0.0
97305.416767458,-216.796875,-46.38671875,6.34765625,3.90625,0.0
97305.420673708,-112.79296875,-47.8515625,-1.953125,-23.4375,0.0
97305.424579958,104.00390625,-41.50390625,-2.9296875,-13.671875,0.0
97305.428486208,82.03125,-38.57421875,-4.39453125,20.5078125,0.0
97305.432392458,-168.9453125,-42.48046875,-14.6484375,23.4375,0.0
97305.436298708,-170.8984375,-47.36328125,-22.94921875,-15.625,0.0
97305.440204958,86.42578125,-44.43359375,-24.90234375,-29.78515625,0.0
97305.444111208,145.99609375,-41.9921875,-28.80859375,-6.8359375,0.0
97305.448017458,-57.6171875,-39.0625,-33.203125,-4.39453125,0.0
97305.454684416,-216.30859375,-35.64453125,-31.25,-27.34375,0.0
97305.458590666,-1.953125,-33.203125,-32.2265625,-43.45703125,0.0
97305.462496916,121.09375,-36.1328125,-45.41015625,-26.85546875,0.0
97305.466403166,-34.66796875,-48.828125,-53.7109375,-9.27734375,0.0
97305.470309416,-251.46484375,-46.875,-60.546875,-26.3671875,0.0
97305.474215666,-74.70703125,-38.57421875,-62.98828125,-45.41015625,0.0
97305.478121916,111.328125,-37.59765625,-58.10546875,-24.4140625,0.0
97305.482028166,32.2265625,-36.1328125,-62.98828125,-13.18359375,0.0
97305.485934416,-197.265625,-32.2265625,-67.87109375,-18.06640625,0.0
97305.489840666,-120.60546875,-26.85546875,-61.5234375,-25.87890625,0.0
97305.493746916,108.88671875,-29.78515625,-56.640625,-21.484375,0.0
97305.497653166,120.1171875,-30.2734375,-59.5703125,0.0,0.0
97305.498330375,-137.20703125,-32.2265625,-60.546875,15.13671875,0.0
97305.502236625,-187.01171875,-37.59765625,-59.5703125,2.9296875,0.0
97305.506142875,64.453125,-36.62109375,-65.91796875,-19.53125,0.0
97305.510049125,122.0703125,-35.15625,-72.265625,-6.34765625,0.0
97305.513955375,-75.68359375,-36.62109375,-68.359375,2.9296875,0.0
97305.517861625,-239.2578125,-38.0859375,-67.3828125,-17.08984375,0.0
97305.521767875,-7.8125,-37.59765625,-70.3125,-33.203125,0.0
97305.525674125,145.5078125,-41.015625,-73.2421875,-21.484375,0.0
97305.529580375,11.71875,-38.57421875,-78.125,-5.859375,0.0
97305.533486625,-231.4453125,-31.73828125,-82.51953125,-26.3671875,0.0
97305.537392875,-92.7734375,-35.64453125,-83.0078125,-58.59375,0.0
97305.541299125,131.8359375,-38.0859375,-84.47265625,-42.48046875,0.0
97305.56474925,79.1015625,-37.109375,-86.9140625,-13.18359375,0.0
97305.545908791,-179.19921875,-35.64453125,-81.0546875,-20.01953125,0.0
97305.549815041,-154.296875,-36.1328125,-77.63671875,-48.828125,0.0
97305.553721291,62.01171875,-32.2265625,-80.078125,-48.33984375,0.0
97305.557627541,95.703125,-29.296875,-78.125,-15.13671875,0.0
97305.561533791,-145.99609375,-37.109375,-78.125,-6.34765625,0.0
97305.565440041,-247.0703125,-36.62109375,-82.51953125,-30.2734375,0.0
97305.569346291,7.32421875,-32.71484375,-75.68359375,-30.76171875,0.0
97305.573252541,100.09765625,-28.3203125,-68.84765625,6.34765625,0.0
97305.577158791,-85.44921875,-29.78515625,-77.63671875,17.578125,0.0
97305.581065041,-241.2109375,-36.62109375,-79.1015625,-9.765625,0.0
97305.584971291,-27.34375,-32.71484375,-79.58984375,-32.2265625,0.0
97305.588070333,131.8359375,-31.73828125,-90.8203125,-18.5546875,0.0
97305.591976583,32.71484375,-36.62109375,-90.33203125,2.44140625,0.0
97305.595882833,-197.265625,-36.62109375,-85.44921875,-27.83203125,0.0
97305.599789083,-72.265625,-34.66796875,-91.30859375,-73.2421875,0.0
97305.603695333,124.0234375,-33.203125,-93.26171875,-60.546875,0.0
97305.607601583,84.9609375,-34.1796875,-94.23828125,-26.3671875,0.0
97305.611507833,-150.390625,-35.15625,-101.07421875,-24.4140625,0.0
97305.615414083,-145.01953125,-35.64453125,-104.4921875,-60.546875,0.0
97305.619320333,87.890625,-34.66796875,-100.5859375,-60.05859375,0.0
97305.623226583,132.32421875,-27.34375,-100.5859375,-19.04296875,0.0
97305.627132833,-83.49609375,-25.390625,-102.05078125,-11.23046875,0.0
97305.631039083,-204.1015625,-30.2734375,-101.5625,-34.1796875,0.0
97305.656131458,56.15234375,-28.3203125,-105.46875,-46.875,0.0
97305.641708833,191.89453125,-24.4140625,-110.3515625,-23.4375,0.0
97305.645615083,13.18359375,-25.390625,-116.2109375,-0.48828125,0.0
97305.649521333,-233.3984375,-31.25,-126.953125,-15.625,0.0
97305.653427583,-52.734375,-27.83203125,-128.41796875,-42.96875,0.0
97305.657333833,140.625,-20.5078125,-129.8828125,-32.2265625,0.0
97305.661240083,47.36328125,-27.34375,-137.6953125,-10.25390625,0.0
97305.665146333,-211.42578125,-31.73828125,-139.16015625,-8.30078125,0.0
97305.669052583,-129.39453125,-30.2734375,-145.01953125,-42.96875,0.0
97305.672958833,106.93359375,-32.2265625,-142.08984375,-49.31640625,0.0
97305.676865083,107.91015625,-34.1796875,-137.6953125,-11.23046875,0.0
97305.680771333,-132.32421875,-33.203125,-137.6953125,-12.6953125,0.0
97305.65810075,-157.71484375,-35.64453125,-136.23046875,-45.8984375,0.0
97305.662007,84.9609375,-39.55078125,-137.20703125,-58.59375,0.0
97305.66591325,144.53125,-36.1328125,-135.7421875,-38.57421875,0.0
97305.6698195,-53.7109375,-35.64453125,-138.671875,-33.69140625,0.0
97305.67372575,-189.453125,-40.0390625,-145.5078125,-49.31640625,0.0
97305.677632,36.1328125,-42.96875,-143.06640625,-64.94140625,0.0
97305.68153825,167.48046875,-43.45703125,-138.671875,-47.8515625,0.0
97305.6854445,24.90234375,-43.45703125,-135.7421875,-20.99609375,0.0
97305.68935075,-213.37890625,-42.96875,-135.7421875,-38.57421875,0.0
97305.693257,-49.8046875,-43.45703125,-133.30078125,-63.4765625,0.0
97305.69716325,126.953125,-41.50390625,-125.48828125,-50.29296875,0.0
97305.7010695,50.78125,-39.55078125,-121.58203125,-23.92578125,0.0
97305.703091291,-169.43359375,-40.0390625,-121.58203125,-23.4375,0.0
97305.706997541,-99.12109375,-43.9453125,-123.53515625,-47.8515625,0.0
97305.710903791,116.69921875,-41.9921875,-118.65234375,-38.0859375,0.0
97305.714810041,112.79296875,-39.55078125,-112.3046875,-7.32421875,0.0
97305.718716291,-134.27734375,-42.48046875,-111.81640625,3.41796875,0.0
97305.722622541,-193.84765625,-43.45703125,-116.2109375,-16.6015625,0.0
97305.726528791,60.546875,-40.52734375,-116.2109375,-19.53125,0.0
97305.730435041,125.0,-40.52734375,-113.28125,0.48828125,0.0
97305.734341291,-60.05859375,-47.8515625,-106.4453125,6.8359375,0.0
97305.738247541,-204.58984375,-48.33984375,-96.6796875,-5.37109375,0.0
97305.742153791,10.25390625,-41.50390625,-83.984375,-27.34375,0.0
97305.746060041,143.5546875,-43.45703125,-83.49609375,-20.99609375,0.0
97305.776410125,29.296875,-46.38671875,-90.33203125,3.41796875,0.0
97305.780316375,-199.70703125,-39.55078125,-88.37890625,-5.37109375,0.0
97305.784222625,-78.61328125,-34.1796875,-82.51953125,-53.7109375,0.0
97305.788128875,128.41796875,-37.59765625,-79.58984375,-68.359375,0.0
97305.792035125,90.8203125,-41.015625,-73.73046875,-46.875,0.0
97305.795941375,-161.62109375,-44.43359375,-62.98828125,-44.921875,0.0
97305.799847625,-149.90234375,-40.52734375,-57.6171875,-68.84765625,0.0
97305.803753875,106.93359375,-37.109375,-53.7109375,-67.87109375,0.0
97305.807660125,163.0859375,-39.0625,-47.36328125,-34.66796875,0.0
97305.811566375,-79.58984375,-41.9921875,-46.875,-17.08984375,0.0
97305.815472625,-178.22265625,-45.41015625,-50.29296875,-42.48046875,0.0
97305.819378875,56.15234375,-44.921875,-42.48046875,-49.31640625,0.0
97305.824163041,144.04296875,-44.43359375,-36.1328125,-15.13671875,0.0
97305.828069291,-35.15625,-43.45703125,-33.69140625,5.37109375,0.0
97305.831975541,-245.1171875,-41.9921875,-35.64453125,-19.04296875,0.0
97305.835881791,-43.45703125,-38.0859375,-29.296875,-43.9453125,0.0
97305.839788041,128.90625,-40.52734375,-23.4375,-18.06640625,0.0
97305.843694291,27.83203125,-39.55078125,-26.3671875,21.97265625,0.0
97305.847600541,-204.1015625,-39.0625,-24.90234375,15.625,0.0
97305.851506791,-88.37890625,-41.9921875,-27.34375,-47.8515625,0.0
97305.855413041,142.08984375,-39.0625,-20.5078125,-56.15234375,0.0
97305.859319291,113.28125,-43.9453125,-17.08984375,-16.11328125,0.0
97305.863225541,-141.11328125,-49.31640625,-19.53125,-19.53125,0.0
97305.867131791,-136.23046875,-42.48046875,-15.13671875,-50.78125,0.0
97305.869953208,119.62890625,-34.1796875,-13.671875,-50.78125,0.0
97305.873859458,160.64453125,-36.1328125,-18.5546875,-24.4140625,0.0
97305.877765708,-72.265625,-36.62109375,-17.578125,-19.04296875,0.0
97305.881671958,-205.56640625,-33.69140625,-14.16015625,-50.29296875,0.0
97305.885578208,41.015625,-34.66796875,-14.16015625,-61.03515625,0.0
97305.889484458,164.55078125,-40.0390625,-9.765625,-12.6953125,0.0
97305.893390708,-10.25390625,-42.96875,-10.7421875,9.27734375,0.0
97305.897296958,-230.46875,-39.55078125,-9.27734375,-20.01953125,0.0
97305.901203208,-59.08203125,-33.69140625,-7.32421875,-46.875,0.0
97305.905109458,113.28125,-31.25,-12.20703125,-24.90234375,0.0
97305.909015708,37.109375,-36.1328125,-17.08984375,12.20703125,0.0
97305.912921958,-204.58984375,-39.0625,-23.92578125,3.90625,0.0
97305.915859875,-125.9765625,-32.71484375,-30.76171875,-40.0390625,0.0
97305.919766125,113.76953125,-31.25,-28.80859375,-39.0625,0.0
97305.923672375,130.37109375,-37.59765625,-25.390625,-1.46484375,0.0
97305.927578625,-113.28125,-35.64453125,-29.78515625,-0.9765625,0.0
97305.931484875,-190.91796875,-35.64453125,-35.64453125,-39.0625,0.0
97305.935391125,42.96875,-36.1328125,-40.52734375,-45.8984375,0.0
97305.939297375,128.41796875,-33.69140625,-44.921875,-9.765625,0.0
97305.943203625,-63.4765625,-30.76171875,-49.8046875,-1.46484375,0.0
97305.947109875,-210.44921875,-31.73828125,-60.546875,-27.34375,0.0
97305.951016125,11.23046875,-37.109375,-64.94140625,-53.22265625,0.0
97305.954922375,145.99609375,-35.15625,-62.5,-44.921875,0.0
97305.958828625,11.23046875,-30.76171875,-59.08203125,-20.99609375,0.0
97305.960111416,-224.12109375,-32.71484375,-56.640625,-23.92578125,0.0
97305.964017666,-74.70703125,-33.203125,-56.640625,-44.921875,0.0
97305.967923916,133.30078125,-35.15625,-54.6875,-31.25,0.0
97305.971830166,64.94140625,-34.1796875,-58.59375,-7.32421875,0.0
97305.975736416,-189.453125,-28.3203125,-64.94140625,-31.25,0.0
97305.979642666,-145.5078125,-25.390625,-70.80078125,-64.453125,0.0
97305.983548916,78.125,-29.296875,-72.265625,-77.1484375,0.0
97305.987455166,85.44921875,-31.25,-76.171875,-50.29296875,0.0
97305.991361416,-167.96875,-30.76171875,-84.47265625,-24.4140625,0.0
97305.995267666,-254.39453125,-40.0390625,-81.54296875,-53.22265625,0.0
97305.999173916,14.6484375,-41.50390625,-73.2421875,-67.87109375,0.0
97306.003080166,111.81640625,-33.203125,-73.2421875,-38.0859375,0.0
97306.00891525,-70.80078125,-31.73828125,-81.0546875,-32.2265625,0.0
97306.0128215,-243.1640625,-34.1796875,-83.0078125,-62.01171875,0.0
97306.01672775,-31.73828125,-36.1328125,-83.49609375,-83.49609375,0.0
97306.020634,117.1875,-36.1328125,-85.44921875,-61.03515625,0.0
97306.02454025,-15.13671875,-38.0859375,-81.54296875,-26.3671875,0.0
97306.0284465,-256.8359375,-39.55078125,-76.66015625,-16.6015625,0.0
97306.03235275,-132.32421875,-38.57421875,-73.73046875,-45.8984375,0.0
97306.036259,82.51953125,-41.9921875,-74.70703125,-53.7109375,0.0
97306.04016525,42.48046875,-44.43359375,-77.1484375,-23.4375,0.0
97306.0440715,-196.2890625,-42.96875,-74.21875,-18.5546875,0.0
97306.04797775,-174.8046875,-41.50390625,-68.84765625,-45.41015625,0.0
97306.051884,44.921875,-45.8984375,-74.21875,-59.5703125,0.0
97306.0766275,78.125,-42.96875,-75.68359375,-33.69140625,0.0
97306.061557958,-144.53125,-39.55078125,-68.84765625,-15.13671875,0.0
97306.065464208,-244.62890625,-36.62109375,-62.98828125,-34.66796875,0.0
97306.069370458,-10.25390625,-37.109375,-60.546875,-42.96875,0.0
97306.073276708,93.75,-40.52734375,-64.453125,-15.625,0.0
97306.077182958,-70.80078125,-42.48046875,-66.40625,-0.9765625,0.0
97306.081089208,-272.4609375,-45.41015625,-63.96484375,-21.484375,0.0
97306.084995458,-72.265625,-40.0390625,-58.10546875,-54.19921875,0.0
97306.088901708,110.3515625,-38.57421875,-55.17578125,-46.38671875,0.0
97306.092807958,30.2734375,-41.015625,-60.05859375,-28.80859375,0.0
97306.096714208,-218.75,-44.43359375,-68.84765625,-38.0859375,0.0
97306.100620458,-124.51171875,-42.96875,-71.77734375,-65.91796875,0.0
97306.077960125,118.65234375,-41.015625,-66.89453125,-61.5234375,0.0
97306.081866375,116.2109375,-41.50390625,-62.5,-24.4140625,0.0
97306.085772625,-145.99609375,-40.0390625,-62.01171875,-15.13671875,0.0
97306.089678875,-194.82421875,-39.55078125,-63.4765625,-47.36328125,0.0
97306.093585125,43.45703125,-38.57421875,-62.5,-44.921875,0.0
97306.097491375,92.28515625,-39.55078125,-60.05859375,-10.7421875,0.0
97306.101397625,-137.6953125,-38.0859375,-64.453125,-16.6015625,0.0
97306.105303875,-285.15625,-36.1328125,-69.82421875,-44.921875,0.0
97306.109210125,-22.94921875,-38.0859375,-66.89453125,-57.12890625,0.0
97306.113116375,121.58203125,-38.57421875,-62.5,-30.2734375,0.0
97306.117022625,-22.94921875,-39.0625,-61.03515625,-4.8828125,0.0
97306.120928875,-232.91015625,-39.0625,-62.01171875,-17.08984375,0.0
97306.149733791,-70.3125,-35.15625,-62.98828125,-36.1328125,0.0
97306.153640041,113.76953125,-38.0859375,-55.6640625,-40.0390625,0.0
97306.157546291,39.0625,-38.57421875,-52.734375,-24.4140625,0.0
97306.161452541,-191.40625,-40.52734375,-52.24609375,-6.8359375,0.0
97306.165358791,-125.0,-46.38671875,-46.875,-48.828125,0.0
97306.169265041,104.98046875,-42.48046875,-49.8046875,-77.1484375,0.0
97306.173171291,117.1875,-36.1328125,-49.31640625,-26.3671875,0.0
97306.177077541,-132.32421875,-37.109375,-45.41015625,-13.671875,0.0
97306.180983791,-189.94140625,-38.0859375,-47.36328125,-54.19921875,0.0
97306.184890041,71.77734375,-32.2265625,-50.29296875,-49.8046875,0.0
97306.188796291,151.3671875,-37.59765625,-52.24609375,-16.6015625,0.0
97306.192702541,-40.52734375,-42.96875,-52.24609375,-11.23046875,0.0
97306.197877208,-188.96484375,-43.45703125,-53.7109375,-30.76171875,0.0
97306.201783458,20.5078125,-40.0390625,-49.8046875,-49.31640625,0.0
97306.205689708,150.390625,-35.15625,-49.31640625,-35.15625,0.0
97306.209595958,34.1796875,-33.203125,-54.6875,-8.7890625,0.0
97306.213502208,-229.00390625,-30.2734375,-50.29296875,-12.6953125,0.0
97306.217408458,-126.46484375,-29.78515625,-46.38671875,-33.203125,0.0
97306.221314708,83.984375,-31.73828125,-46.38671875,-22.4609375,0.0
97306.225220958,59.5703125,-37.109375,-50.29296875,-7.32421875,0.0
97306.229127208,-179.19921875,-42.48046875,-56.640625,-7.8125,0.0
97306.233033458,-165.52734375,-36.1328125,-58.10546875,-22.94921875,0.0
97306.236939708,74.70703125,-34.66796875,-57.12890625,-21.484375,0.0
97306.240845958,125.0,-39.0625,-62.5,2.9296875,0.0
97306.245037791,-90.33203125,-36.62109375,-62.98828125,1.953125,0.0
97306.248944041,-186.5234375,-39.0625,-63.4765625,-34.66796875,0.0
97306.252850291,61.5234375,-37.59765625,-61.5234375,-47.8515625,0.0
97306.256756541,162.59765625,-37.59765625,-60.546875,-18.06640625,0.0
97306.260662791,-37.109375,-40.0390625,-69.3359375,-5.859375,0.0
97306.264569041,-232.91015625,-41.015625,-73.2421875,-44.43359375,0.0
97306.268475291,-13.671875,-39.55078125,-69.82421875,-71.77734375,0.0
97306.272381541,139.6484375,-39.55078125,-65.91796875,-50.29296875,0.0
97306.276287791,25.390625,-41.50390625,-68.359375,-34.1796875,0.0
97306.280194041,-214.84375,-39.55078125,-73.2421875,-34.1796875,0.0
97306.284100291,-103.515625,-42.96875,-78.125,-54.19921875,0.0
97306.288006541,113.28125,-46.875,-78.61328125,-52.734375,0.0
97306.289047875,70.80078125,-47.8515625,-76.66015625,-25.87890625,0.0
97306.292954125,-185.546875,-49.8046875,-70.3125,-25.390625,0.0
97306.296860375,-175.29296875,-45.41015625,-68.359375,-46.38671875,0.0
97306.300766625,86.9140625,-38.57421875,-69.82421875,-51.7578125,0.0
97306.304672875,122.55859375,-40.52734375,-73.2421875,-32.71484375,0.0
97306.308579125,-109.375,-39.0625,-79.1015625,-24.90234375,0.0
97306.312485375,-225.09765625,-34.66796875,-83.49609375,-53.22265625,0.0
97306.316391625,30.2734375,-37.59765625,-82.51953125,-65.4296875,0.0
97306.320297875,131.8359375,-36.62109375,-81.0546875,-19.53125,0.0
97306.324204125,-40.52734375,-33.203125,-80.56640625,6.34765625,0.0
97306.328110375,-225.5859375,-36.1328125,-83.0078125,-25.390625,0.0
97306.332016625,-45.8984375,-35.64453125,-88.37890625,-62.5,0.0
97306.338226541,119.140625,-35.64453125,-88.8671875,-47.8515625,0.0
97306.342132791,34.66796875,-35.15625,-90.8203125,-14.16015625,0.0
97306.346039041,-209.9609375,-30.2734375,-93.26171875,-10.25390625,0.0
97306.349945291,-127.44140625,-33.69140625,-95.21484375,-35.64453125,0.0
97306.353851541,98.14453125,-38.57421875,-92.28515625,-35.15625,0.0
97306.357757791,98.6328125,-34.1796875,-94.23828125,-2.9296875,0.0
97306.361664041,-152.83203125,-30.2734375,-99.12109375,-6.34765625,0.0
97306.365570291,-203.61328125,-32.2265625,-97.16796875,-40.0390625,0.0
97306.369476541,52.734375,-36.62109375,-101.07421875,-33.69140625,0.0
97306.373382791,131.34765625,-36.1328125,-99.12109375,1.953125,0.0
97306.377289041,-75.1953125,-30.2734375,-95.21484375,-13.18359375,0.0
97306.381195291,-237.3046875,-32.71484375,-94.7265625,-54.19921875,0.0
97306.404955625,1.46484375,-38.0859375,-93.75,-72.265625,0.0
97306.387337333,136.23046875,-38.57421875,-96.6796875,-53.7109375,0.0
97306.391243583,-13.18359375,-40.52734375,-98.6328125,-25.87890625,0.0
97306.395149833,-226.5625,-36.1328125,-98.6328125,-30.76171875,0.0
97306.399056083,-76.171875,-33.69140625,-98.6328125,-53.7109375,0.0
97306.402962333,110.83984375,-38.0859375,-95.703125,-39.55078125,0.0
97306.406868583,56.640625,-36.1328125,-96.19140625,-7.8125,0.0
97306.410774833,-198.2421875,-35.15625,-101.07421875,-7.32421875,0.0
97306.414681083,-155.2734375,-37.109375,-96.19140625,-44.43359375,0.0
97306.418587333,98.14453125,-37.109375,-86.9140625,-54.6875,0.0
97306.422493583,130.37109375,-35.15625,-83.0078125,-23.92578125,0.0
97306.426399833,-115.234375,-36.62109375,-82.51953125,-8.30078125,0.0
97306.445435291,-189.453125,-40.52734375,-83.0078125,-24.90234375,0.0
97306.449341541,75.1953125,-37.59765625,-86.42578125,-43.9453125,0.0
97306.43863375,148.92578125,-34.1796875,-89.84375,-23.4375,0.0
97306.44254,-64.453125,-39.0625,-92.28515625,1.46484375,0.0
97306.44644625,-248.046875,-37.59765625,-88.37890625,-15.13671875,0.0
97306.4503525,-32.2265625,-41.015625,-84.47265625,-35.64453125,0.0
97306.45425875,128.90625,-49.31640625,-87.890625,-18.5546875,0.0
97306.458165,12.20703125,-45.41015625,-92.28515625,0.0,0.0
97306.46207125,-210.9375,-40.52734375,-91.30859375,-11.23046875,0.0
97306.4659775,-75.68359375,-37.109375,-96.6796875,-51.7578125,0.0
97306.46988375,128.90625,-33.69140625,-104.4921875,-51.26953125,0.0
97306.47379,95.21484375,-33.203125,-104.00390625,-30.76171875,0.0
97306.495985875,-151.3671875,-36.1328125,-100.5859375,-39.0625,0.0
97306.482071083,-142.578125,-37.59765625,-95.21484375,-70.80078125,0.0
97306.485977333,93.75,-42.96875,-92.7734375,-62.01171875,0.0
97306.489883583,157.71484375,-41.50390625,-92.7734375,-19.04296875,0.0
97306.493789833,-42.48046875,-33.69140625,-91.796875,-15.625,0.0
97306.497696083,-155.76171875,-35.64453125,-91.796875,-38.0859375,0.0
97306.501602333,53.22265625,-45.41015625,-92.7734375,-30.2734375,0.0
97306.505508583,104.00390625,-50.78125,-96.19140625,0.0,0.0
97306.509414833,-65.4296875,-47.8515625,-96.6796875,4.8828125,0.0
97306.513321083,-240.234375,-44.921875,-100.09765625,-15.625,0.0
97306.517227333,-55.6640625,-45.8984375,-103.515625,-34.1796875,0.0
97306.521133583,110.83984375,-49.8046875,-100.09765625,-28.80859375,0.0
97306.524338166,32.2265625,-46.875,-94.7265625,-16.11328125,0.0
97306.528244416,-196.77734375,-39.0625,-91.30859375,-15.13671875,0.0
97306.532150666,-104.00390625,-44.43359375,-97.16796875,-30.2734375,0.0
97306.536056916,127.44140625,-47.8515625,-98.6328125,-30.2734375,0.0
97306.539963166,111.328125,-37.59765625,-94.23828125,-14.6484375,0.0
97306.543869416,-151.85546875,-40.0390625,-95.703125,-18.5546875,0.0
97306.547775666,-170.41015625,-40.52734375,-93.26171875,-28.80859375,0.0
97306.551681916,80.56640625,-35.15625,-92.7734375,-20.99609375,0.0
97306.555588166,172.8515625,-37.59765625,-92.28515625,-1.46484375,0.0
97306.559494416,-29.296875,-36.1328125,-94.23828125,1.46484375,0.0
97306.563400666,-170.41015625,-35.15625,-94.7265625,-38.57421875,0.0
97306.567306916,66.89453125,-37.59765625,-91.30859375,-66.40625,0.0
97306.572357458,164.0625,-38.57421875,-88.8671875,-41.9921875,0.0
97306.576263708,-8.7890625,-42.48046875,-89.35546875,-22.94921875,0.0
97306.580169958,-228.02734375,-46.38671875,-92.28515625,-30.76171875,0.0
97306.584076208,-55.6640625,-37.59765625,-92.7734375,-42.96875,0.0
97306.587982458,147.4609375,-34.1796875,-90.33203125,-30.76171875,0.0
97306.591888708,79.1015625,-40.0390625,-89.84375,-5.859375,0.0
97306.595794958,-155.76171875,-40.0390625,-90.33203125,-14.16015625,0.0
97306.599701208,-94.23828125,-42.48046875,-86.9140625,-47.36328125,0.0
97306.603607458,100.09765625,-43.9453125,-79.58984375,-34.1796875,0.0
97306.607513708,81.0546875,-39.0625,-77.1484375,0.48828125,0.0
97306.611419958,-168.45703125,-41.9921875,-76.66015625,-13.671875,0.0
97306.615326208,-195.80078125,-43.9453125,-72.75390625,-42.96875,0.0
97306.621368166,62.01171875,-42.96875,-74.21875,-30.76171875,0.0
97306.625274416,132.32421875,-43.9453125,-78.61328125,-6.34765625,0.0
97306.629180666,-55.6640625,-43.9453125,-70.80078125,-6.8359375,0.0
97306.633086916,-215.8203125,-43.9453125,-60.05859375,-33.69140625,0.0
97306.636993166,3.41796875,-42.96875,-57.12890625,-52.24609375,0.0
97306.640899416,138.671875,-41.9921875,-52.24609375,-30.2734375,0.0
97306.644805666,13.671875,-37.59765625,-49.31640625,-17.08984375,0.0
97306.648711916,-209.47265625,-33.69140625,-46.38671875,-32.71484375,0.0
97306.652618166,-86.9140625,-42.96875,-47.8515625,-39.55078125,0.0
97306.656524416,105.95703125,-43.45703125,-44.921875,-20.5078125,0.0
97306.660430666,74.21875,-35.64453125,-37.59765625,0.9765625,0.0
97306.664336916,-167.48046875,-41.015625,-38.0859375,-5.37109375,0.0
97306.6686765,-149.90234375,-40.0390625,-35.64453125,-45.8984375,0.0
97306.67258275,90.8203125,-37.109375,-32.71484375,-48.33984375,0.0
97306.676489,90.33203125,-36.1328125,-29.296875,-21.484375,0.0
97306.68039525,-176.26953125,-34.1796875,-26.3671875,-17.578125,0.0
97306.6843015,-239.74609375,-35.15625,-27.83203125,-38.0859375,0.0
97306.68820775,8.30078125,-36.1328125,-31.73828125,-55.6640625,0.0
97306.692114,111.81640625,-37.59765625,-35.15625,-45.8984375,0.0
97306.69602025,-64.453125,-41.50390625,-36.1328125,-30.2734375,0.0
97306.6999265,-266.6015625,-41.50390625,-37.109375,-31.25,0.0
97306.70383275,-51.26953125,-38.0859375,-32.2265625,-35.15625,0.0
97306.707739,121.09375,-37.109375,-27.83203125,-22.94921875,0.0
97306.71164525,14.16015625,-29.78515625,-33.69140625,-16.11328125,0.0
97306.730479416,-215.33203125,-27.83203125,-37.59765625,-20.01953125,0.0
97306.734385666,-91.30859375,-37.109375,-38.0859375,-53.22265625,0.0
97306.724301291,128.41796875,-41.015625,-40.0390625,-67.87109375,0.0
97306.728207541,87.890625,-39.0625,-39.0625,-26.85546875,0.0
97306.732113791,-184.5703125,-38.0859375,-36.62109375,-13.18359375,0.0
97306.736020041,-209.47265625,-35.15625,-28.80859375,-47.8515625,0.0
97306.739926291,50.29296875,-28.3203125,-21.484375,-41.9921875,0.0
97306.743832541,110.3515625,-31.25,-26.85546875,-7.8125,0.0
97306.747738791,-124.51171875,-41.015625,-34.66796875,-10.7421875,0.0
97306.751645041,-236.81640625,-41.015625,-34.66796875,-37.59765625,0.0
97306.755551291,12.20703125,-32.71484375,-34.1796875,-57.6171875,0.0
97306.759457541,124.0234375,-31.25,-36.62109375,-36.62109375,0.0
97306.7802315,-28.3203125,-36.62109375,-37.59765625,-13.18359375,0.0
97306.766276083,-220.703125,-33.203125,-37.109375,-24.90234375,0.0
97306.770182333,-33.69140625,-27.34375,-34.1796875,-43.45703125,0.0
97306.774088583,126.46484375,-28.80859375,-36.1328125,-19.53125,0.0
97306.777994833,35.64453125,-29.296875,-41.015625,0.9765625,0.0
97306.781901083,-199.70703125,-29.78515625,-42.48046875,-20.01953125,0.0
97306.785807333,-117.1875,-30.76171875,-39.55078125,-42.48046875,0.0
97306.789713583,85.44921875,-35.64453125,-41.015625,-34.1796875,0.0
97306.793619833,78.125,-37.109375,-42.48046875,-12.6953125,0.0
97306.797526083,-145.99609375,-33.203125,-42.48046875,-23.4375,0.0
97306.801432333,-183.10546875,-32.2265625,-42.48046875,-52.734375,0.0
97306.805338583,60.546875,-34.1796875,-41.50390625,-42.96875,0.0
97306.810413208,138.671875,-30.76171875,-41.50390625,-5.859375,0.0
97306.814319458,-60.05859375,-31.25,-45.8984375,-5.37109375,0.0
97306.818225708,-207.03125,-34.1796875,-50.78125,-45.41015625,0.0
97306.822131958,30.76171875,-34.66796875,-44.921875,-66.40625,0.0
97306.826038208,162.59765625,-32.2265625,-39.55078125,-33.203125,0.0
97306.829944458,2.44140625,-24.90234375,-41.015625,-0.48828125,0.0
97306.833850708,-222.16796875,-31.73828125,-41.9921875,-3.90625,0.0
97306.837756958,-66.40625,-33.69140625,-41.015625,-24.90234375,0.0
97306.841663208,133.7890625,-25.390625,-45.8984375,-38.57421875,0.0
97306.845569458,93.26171875,-36.1328125,-55.6640625,-30.76171875,0.0
97306.849475708,-168.45703125,-44.43359375,-54.19921875,-33.69140625,0.0
97306.853381958,-128.90625,-42.48046875,-55.17578125,-59.5703125,0.0
97306.831394875,111.81640625,-43.9453125,-58.10546875,-57.12890625,0.0
97306.835301125,132.32421875,-38.57421875,-51.26953125,-12.20703125,0.0
97306.839207375,-103.02734375,-30.76171875,-49.31640625,2.44140625,0.0
97306.843113625,-166.015625,-33.69140625,-53.7109375,-30.2734375,0.0
97306.847019875,82.03125,-39.0625,-53.7109375,-38.0859375,0.0
97306.850926125,147.94921875,-34.1796875,-52.24609375,-8.7890625,0.0
97306.854832375,-62.5,-33.69140625,-50.78125,10.25390625,0.0
97306.858738625,-233.3984375,-39.0625,-54.6875,-8.30078125,0.0
97306.862644875,-0.48828125,-40.0390625,-55.6640625,-44.921875,0.0
97306.866551125,152.34375,-37.59765625,-51.26953125,-42.96875,0.0
97306.870457375,26.3671875,-38.0859375,-52.734375,-11.71875,0.0
97306.874363625,-208.984375,-39.0625,-53.7109375,-16.11328125,0.0
97306.904308791,-79.1015625,-33.69140625,-48.828125,-50.78125,0.0
97306.908215041,127.9296875,-32.2265625,-44.43359375,-39.55078125,0.0
97306.912121291,81.0546875,-36.1328125,-43.45703125,-5.37109375,0.0
97306.916027541,-150.390625,-33.69140625,-45.41015625,-7.8125,0.0
97306.919933791,-114.2578125,-34.1796875,-49.8046875,-58.59375,0.0
97306.923840041,83.0078125,-39.55078125,-54.6875,-74.21875,0.0
97306.927746291,84.9609375,-40.52734375,-51.7578125,-29.78515625,0.0
97306.931652541,-137.6953125,-41.50390625,-50.29296875,-16.6015625,0.0
97306.935558791,-215.8203125,-41.50390625,-51.26953125,-49.31640625,0.0
97306.939465041,52.24609375,-33.69140625,-45.41015625,-60.546875,0.0
97306.943371291,162.109375,-35.15625,-40.52734375,-26.3671875,0.0
97306.947277541,-5.37109375,-42.48046875,-38.57421875,-5.37109375,0.0
97306.953404791,-233.88671875,-43.9453125,-38.0859375,-30.76171875,0.0
97306.957311041,-68.359375,-34.66796875,-37.59765625,-58.10546875,0.0
97306.961217291,101.07421875,-28.80859375,-38.57421875,-32.2265625,0.0
97306.965123541,-0.9765625,-32.2265625,-43.45703125,-7.8125,0.0
97306.969029791,-224.12109375,-34.66796875,-44.43359375,-15.625,0.0
97306.972936041,-111.328125,-34.66796875,-43.45703125,-32.71484375,0.0
97306.976842291,101.5625,-36.1328125,-47.36328125,-23.92578125,0.0
97306.980748541,88.8671875,-40.0390625,-47.36328125,-8.30078125,0.0
97306.984654791,-147.4609375,-39.0625,-50.78125,-16.11328125,0.0
97306.988561041,-161.62109375,-39.55078125,-52.24609375,-41.015625,0.0
97306.992467291,72.75390625,-41.9921875,-49.31640625,-46.875,0.0
97306.996373541,124.51171875,-39.55078125,-50.29296875,-27.34375,0.0
97307.01981925,-83.0078125,-35.64453125,-55.17578125,-7.32421875,0.0
97307.0058455,-224.12109375,-36.1328125,-52.734375,-26.3671875,0.0
97307.00975175,6.8359375,-36.62109375,-48.828125,-40.0390625,0.0
97307.013658,131.8359375,-34.1796875,-53.22265625,-9.27734375,0.0
97307.01756425,-18.5546875,-31.25,-52.734375,-1.953125,0.0
97307.0214705,-236.81640625,-30.76171875,-51.7578125,-31.25,0.0
97307.02537675,-52.24609375,-33.203125,-54.19921875,-46.875,0.0
97307.029283,150.87890625,-35.15625,-54.19921875,-31.73828125,0.0
97307.03318925,89.84375,-38.57421875,-52.24609375,-13.18359375,0.0
97307.0370955,-172.36328125,-37.59765625,-47.8515625,-12.6953125,0.0
97307.04100175,-114.74609375,-32.2265625,-45.8984375,-48.33984375,0.0
97307.044908,120.60546875,-30.2734375,-46.38671875,-50.78125,0.0
97307.066837291,113.76953125,-26.85546875,-43.45703125,-16.11328125,0.0
97307.0512405,-126.46484375,-30.2734375,-46.38671875,-7.8125,0.0
97307.05514675,-160.64453125,-35.64453125,-53.7109375,-20.5078125,0.0
97307.059053,99.609375,-38.57421875,-52.734375,-15.625,0.0
97307.06295925,138.671875,-39.0625,-54.19921875,0.48828125,0.0
97307.0668655,-62.98828125,-37.59765625,-62.5,-18.5546875,0.0
97307.07077175,-195.3125,-40.0390625,-57.12890625,-48.33984375,0.0
97307.074678,17.578125,-39.0625,-47.36328125,-49.8046875,0.0
97307.07858425,154.78515625,-39.0625,-49.31640625,-23.4375,0.0
97307.0824905,9.765625,-41.015625,-55.6640625,-3.90625,0.0
97307.08639675,-207.03125,-45.41015625,-56.640625,-14.16015625,0.0
97307.090303,-58.10546875,-44.43359375,-56.15234375,-37.109375,0.0
97307.067547333,131.34765625,-36.62109375,-58.59375,-34.1796875,0.0
97307.071453583,80.56640625,-37.109375,-63.4765625,-21.97265625,0.0
97307.075359833,-161.62109375,-35.64453125,-61.03515625,-12.20703125,0.0
97307.079266083,-121.09375,-34.66796875,-53.7109375,-32.2265625,0.0
97307.083172333,107.91015625,-41.015625,-56.640625,-37.109375,0.0
97307.087078583,133.30078125,-39.55078125,-59.5703125,-5.859375,0.0
97307.090984833,-108.88671875,-40.0390625,-60.546875,2.44140625,0.0
97307.094891083,-198.2421875,-42.96875,-61.03515625,-32.71484375,0.0
97307.098797333,48.828125,-40.52734375,-55.6640625,-56.15234375,0.0
97307.102703583,151.3671875,-32.2265625,-52.24609375,-30.2734375,0.0
97307.106609833,-23.92578125,-29.296875,-54.6875,-15.625,0.0
97307.110516083,-227.5390625,-35.64453125,-55.6640625,-38.0859375,0.0
97307.151886416,-18.5546875,-30.76171875,-49.31640625,-55.6640625,0.0
97307.155792666,155.2734375,-27.83203125,-47.36328125,-27.34375,0.0
97307.145696166,52.734375,-31.25,-46.38671875,-2.44140625,0.0
97307.149602416,-183.59375,-30.76171875,-47.36328125,-19.53125,0.0
97307.153508666,-89.84375,-30.2734375,-49.31640625,-40.52734375,0.0
97307.157414916,94.7265625,-28.80859375,-51.26953125,-23.4375,0.0
97307.161321166,67.87109375,-27.83203125,-58.59375,5.37109375,0.0
97307.165227416,-171.38671875,-30.76171875,-59.08203125,-5.37109375,0.0
97307.169133666,-161.1328125,-34.1796875,-59.08203125,-35.64453125,0.0
97307.173039916,98.6328125,-42.48046875,-64.453125,-27.34375,0.0
97307.176946166,127.9296875,-43.45703125,-67.3828125,9.765625,0.0
97307.180852416,-113.28125,-38.57421875,-64.453125,12.20703125,0.0
97307.18536475,-217.7734375,-39.0625,-60.05859375,-30.2734375,0.0
97307.189271,25.390625,-37.109375,-61.03515625,-51.7578125,0.0
97307.19317725,127.44140625,-34.1796875,-61.5234375,-21.484375,0.0
97307.1970835,-42.96875,-36.1328125,-65.91796875,-8.7890625,0.0
97307.20098975,-245.1171875,-38.0859375,-74.70703125,-37.59765625,0.0
97307.202675166,-56.640625,-37.109375,-76.171875,-57.12890625,0.0
97307.206581416,123.046875,-37.59765625,-74.70703125,-34.66796875,0.0
97307.210487666,25.87890625,-35.64453125,-70.3125,-2.44140625,0.0
97307.214393916,-237.3046875,-36.1328125,-72.265625,-10.25390625,0.0
97307.218300166,-130.37109375,-36.1328125,-75.1953125,-49.31640625,0.0
97307.222206416,99.12109375,-29.78515625,-68.84765625,-28.80859375,0.0
97307.226112666,71.2890625,-31.73828125,-69.3359375,-1.953125,0.0
97307.203439,-161.1328125,-37.59765625,-74.70703125,-25.87890625,0.0
97307.20734525,-169.43359375,-35.15625,-76.171875,-58.10546875,0.0
97307.2112515,70.3125,-36.1328125,-79.58984375,-52.734375,0.0
97307.21515775,123.53515625,-41.9921875,-78.61328125,-24.90234375,0.0
97307.219064,-84.47265625,-41.9921875,-77.1484375,-23.92578125,0.0
97307.22297025,-237.3046875,-40.0390625,-77.63671875,-53.22265625,0.0
97307.2268765,5.37109375,-37.109375,-73.2421875,-69.3359375,0.0
97307.23078275,148.4375,-40.52734375,-72.75390625,-34.66796875,0.0
97307.234689,16.6015625,-44.43359375,-72.75390625,-18.5546875,0.0
97307.23859525,-211.9140625,-41.50390625,-74.21875,-33.69140625,0.0
97307.2425015,-86.42578125,-40.0390625,-77.63671875,-42.96875,0.0
97307.24640775,96.19140625,-37.109375,-77.63671875,-17.578125,0.0
97307.276499958,47.36328125,-37.59765625,-84.47265625,-0.48828125,0.0
97307.280406208,-188.4765625,-40.52734375,-89.35546875,-22.94921875,0.0
97307.284312458,-124.51171875,-37.109375,-83.49609375,-50.78125,0.0
97307.288218708,114.74609375,-33.69140625,-78.125,-51.26953125,0.0
97307.292124958,138.18359375,-37.109375,-74.70703125,-33.69140625,0.0
97307.296031208,-103.02734375,-40.52734375,-73.2421875,-31.25,0.0
97307.299937458,-193.359375,-38.57421875,-71.77734375,-36.1328125,0.0
97307.303843708,49.31640625,-32.2265625,-72.75390625,-34.66796875,0.0
97307.307749958,137.6953125,-37.109375,-74.21875,-21.484375,0.0
97307.311656208,-62.98828125,-38.0859375,-70.80078125,-17.578125,0.0
97307.315562458,-222.65625,-35.64453125,-74.21875,-36.1328125,0.0
97307.319468708,-0.48828125,-36.1328125,-81.54296875,-57.6171875,0.0
97307.321366791,145.99609375,-32.2265625,-76.66015625,-32.71484375,0.0
97307.325273041,30.76171875,-30.76171875,-70.3125,3.90625,0.0
97307.329179291,-214.84375,-37.59765625,-70.80078125,-4.8828125,0.0
97307.333085541,-91.796875,-41.9921875,-69.3359375,-40.52734375,0.0
97307.336991791,128.90625,-36.62109375,-68.359375,-34.1796875,0.0
97307.340898041,79.1015625,-36.1328125,-68.84765625,11.71875,0.0
97307.344804291,-165.52734375,-36.62109375,-69.82421875,10.7421875,0.0
97307.348710541,-119.140625,-34.1796875,-72.75390625,-37.109375,0.0
97307.352616791,110.3515625,-32.2265625,-72.75390625,-43.45703125,0.0
97307.356523041,120.60546875,-36.62109375,-68.84765625,-8.30078125,0.0
97307.360429291,-98.14453125,-38.0859375,-61.03515625,-2.44140625,0.0
97307.364335541,-182.12890625,-32.2265625,-53.7109375,-36.62109375,0.0
97307.369028125,51.7578125,-34.66796875,-54.19921875,-47.8515625,0.0
97307.372934375,161.1328125,-35.15625,-47.8515625,-7.32421875,0.0
97307.376840625,5.37109375,-36.1328125,-44.921875,0.0,0.0
97307.380746875,-193.84765625,-41.50390625,-45.8984375,-34.1796875,0.0
97307.384653125,-6.34765625,-35.15625,-47.8515625,-57.12890625,0.0
97307.388559375,151.85546875,-27.83203125,-54.6875,-40.52734375,0.0
97307.392465625,33.69140625,-34.66796875,-51.26953125,-17.578125,0.0
97307.396371875,-214.84375,-40.0390625,-46.875,-15.625,0.0
97307.400278125,-113.28125,-34.1796875,-46.38671875,-35.64453125,0.0
97307.404184375,94.23828125,-31.25,-46.38671875,-30.2734375,0.0
97307.408090625,92.7734375,-34.66796875,-42.96875,2.9296875,0.0
97307.411996875,-150.390625,-38.57421875,-39.0625,5.37109375,0.0
97307.454411291,-185.05859375,-35.64453125,-34.1796875,-27.34375,0.0
97307.44044775,66.89453125,-31.25,-31.73828125,-34.66796875,0.0
97307.444354,129.8828125,-35.15625,-33.69140625,-5.859375,0.0
97307.44826025,-80.078125,-34.1796875,-34.1796875,-16.11328125,0.0
97307.4521665,-206.54296875,-29.78515625,-31.73828125,-44.921875,0.0
97307.45607275,23.92578125,-34.66796875,-29.296875,-55.6640625,0.0
97307.459979,139.6484375,-41.015625,-28.3203125,-30.2734375,0.0
97307.46388525,-15.13671875,-40.52734375,-28.80859375,-10.7421875,0.0
97307.4677915,-246.09375,-40.0390625,-32.2265625,-22.94921875,0.0
97307.47169775,-74.21875,-36.62109375,-29.78515625,-37.59765625,0.0
97307.475604,122.0703125,-34.66796875,-24.4140625,-32.71484375,0.0
97307.47951025,53.7109375,-41.015625,-29.296875,-25.390625,0.0
97307.459204875,-187.01171875,-41.9921875,-29.78515625,-22.4609375,0.0
97307.463111125,-124.0234375,-38.57421875,-22.4609375,-45.41015625,0.0
97307.467017375,93.75,-40.0390625,-20.99609375,-54.6875,0.0
97307.470923625,83.49609375,-38.0859375,-18.06640625,-25.87890625,0.0
97307.474829875,-165.52734375,-38.57421875,-16.11328125,-21.97265625,0.0
97307.478736125,-207.51953125,-39.0625,-21.484375,-44.43359375,0.0
97307.482642375,35.15625,-39.55078125,-27.83203125,-45.41015625,0.0
97307.486548625,108.88671875,-40.52734375,-27.83203125,-26.3671875,0.0
97307.490454875,-75.68359375,-41.015625,-29.296875,-16.11328125,0.0
97307.494361125,-224.12109375,-42.96875,-35.64453125,-32.71484375,0.0
97307.498267375,-3.90625,-39.0625,-32.2265625,-59.5703125,0.0
97307.502173625,123.53515625,-38.0859375,-31.73828125,-38.57421875,0.0
97307.507033375,-2.9296875,-31.73828125,-37.109375,-14.6484375,0.0
97307.510939625,-220.21484375,-27.83203125,-38.57421875,-34.66796875,0.0
97307.514845875,-80.078125,-29.296875,-35.64453125,-48.33984375,0.0
97307.518752125,108.3984375,-30.76171875,-34.1796875,-39.0625,0.0
97307.522658375,53.22265625,-37.59765625,-36.62109375,-19.53125,0.0
97307.526564625,-203.61328125,-34.1796875,-41.50390625,-11.23046875,0.0
97307.530470875,-157.2265625,-27.83203125,-39.0625,-44.921875,0.0
97307.534377125,87.890625,-34.66796875,-35.15625,-38.57421875,0.0
97307.538283375,107.421875,-36.1328125,-37.59765625,3.90625,0.0
97307.542189625,-114.2578125,-31.73828125,-46.38671875,-3.90625,0.0
97307.546095875,-192.87109375,-28.80859375,-53.22265625,-30.76171875,0.0
97307.550002125,33.203125,-29.78515625,-48.828125,-34.1796875,0.0
97307.57460725,122.0703125,-32.2265625,-42.96875,-9.765625,0.0
97307.5595605,-51.26953125,-34.1796875,-40.0390625,3.90625,0.0
97307.56346675,-248.046875,-36.1328125,-37.59765625,-19.53125,0.0
97307.567373,-36.1328125,-36.62109375,-40.0390625,-41.9921875,0.0
97307.57127925,138.671875,-31.25,-42.48046875,-17.578125,0.0
97307.5751855,35.64453125,-25.87890625,-43.9453125,-9.765625,0.0
97307.57909175,-202.1484375,-25.87890625,-49.31640625,-35.15625,0.0
97307.582998,-98.14453125,-28.80859375,-51.26953125,-57.12890625,0.0
97307.58690425,124.0234375,-28.80859375,-51.7578125,-50.29296875,0.0
97307.5908105,97.16796875,-31.25,-53.22265625,-23.92578125,0.0
97307.59471675,-174.8046875,-36.1328125,-55.6640625,-20.5078125,0.0
97307.598623,-162.109375,-36.1328125,-60.05859375,-59.5703125,0.0
97307.616798708,104.00390625,-32.71484375,-56.15234375,-64.453125,0.0
97307.620704958,153.3203125,-25.87890625,-56.15234375,-34.1796875,0.0
97307.610532083,-79.1015625,-28.3203125,-59.5703125,-29.78515625,0.0
97307.614438333,-203.125,-35.64453125,-54.19921875,-56.640625,0.0
97307.618344583,24.90234375,-35.15625,-51.26953125,-64.94140625,0.0
97307.622250833,115.234375,-35.15625,-54.19921875,-29.296875,0.0
97307.626157083,-59.08203125,-37.109375,-58.10546875,1.46484375,0.0
97307.630063333,-265.625,-34.66796875,-60.546875,-14.16015625,0.0
97307.633969583,-61.5234375,-35.15625,-62.01171875,-55.6640625,0.0
97307.637875833,127.44140625,-36.1328125,-64.94140625,-39.0625,0.0
97307.641782083,27.34375,-36.1328125,-63.96484375,-6.34765625,0.0
97307.645688333,-186.03515625,-38.0859375,-66.40625,-14.16015625,0.0
97307.650699208,-79.1015625,-41.015625,-68.359375,-45.8984375,0.0
97307.654605458,104.98046875,-41.015625,-64.453125,-45.41015625,0.0
97307.658511708,102.05078125,-38.0859375,-59.5703125,-16.6015625,0.0
97307.662417958,-126.953125,-33.203125,-62.01171875,-0.9765625,0.0
97307.666324208,-152.83203125,-31.73828125,-64.94140625,-35.15625,0.0
97307.670230458,92.28515625,-31.73828125,-63.96484375,-43.45703125,0.0
97307.674136708,137.6953125,-30.76171875,-63.96484375,3.90625,0.0
97307.678042958,-79.58984375,-28.80859375,-58.10546875,15.13671875,0.0
97307.681949208,-206.54296875,-28.3203125,-50.29296875,-22.94921875,0.0
97307.685855458,20.5078125,-33.69140625,-55.17578125,-41.015625,0.0
97307.689761708,152.83203125,-39.0625,-56.15234375,-22.4609375,0.0
97307.693667958,26.3671875,-39.0625,-54.6875,-4.8828125,0.0
97307.695860541,-198.2421875,-41.9921875,-59.08203125,-27.34375,0.0
97307.699766791,-47.8515625,-39.0625,-58.59375,-58.10546875,0.0
97307.703673041,136.23046875,-31.25,-60.05859375,-44.43359375,0.0
97307.707579291,50.29296875,-32.2265625,-67.3828125,-17.578125,0.0
97307.711485541,-207.03125,-32.71484375,-65.91796875,-13.671875,0.0
97307.715391791,-146.97265625,-28.80859375,-59.08203125,-26.85546875,0.0
97307.719298041,71.2890625,-29.296875,-56.15234375,-16.11328125,0.0
97307.723204291,100.09765625,-34.66796875,-54.6875,-3.90625,0.0
97307.727110541,-122.0703125,-37.109375,-54.19921875,-10.25390625,0.0
97307.731016791,-187.5,-36.1328125,-57.12890625,-40.52734375,0.0
97307.734923041,57.12890625,-31.25,-57.12890625,-52.734375,0.0
97307.738829291,156.73828125,-27.83203125,-54.19921875,-13.18359375,0.0
97307.74324275,-38.57421875,-25.87890625,-50.29296875,8.7890625,0.0
97307.747149,-244.140625,-31.73828125,-49.31640625,-15.13671875,0.0
97307.75105525,-38.57421875,-41.9921875,-55.17578125,-35.15625,0.0
97307.7549615,118.65234375,-43.9453125,-51.7578125,-26.3671875,0.0
97307.75886775,18.06640625,-41.015625,-48.33984375,-13.18359375,0.0
97307.762774,-200.1953125,-41.9921875,-55.17578125,-17.08984375,0.0
97307.76668025,-66.40625,-34.66796875,-54.6875,-38.0859375,0.0
97307.7705865,138.671875,-21.97265625,-45.8984375,-25.87890625,0.0
97307.77449275,76.171875,-25.87890625,-48.828125,-7.8125,0.0
97307.778399,-182.6171875,-29.296875,-52.734375,-21.484375,0.0
97307.78230525,-141.11328125,-27.34375,-50.29296875,-46.38671875,0.0
97307.7862115,110.3515625,-32.71484375,-47.36328125,-40.52734375,0.0
97307.789204541,124.0234375,-34.66796875,-46.875,-3.90625,0.0
97307.793110791,-114.74609375,-32.2265625,-46.875,1.46484375,0.0
97307.797017041,-199.21875,-34.1796875,-51.7578125,-28.3203125,0.0
97307.800923291,49.31640625,-30.76171875,-51.7578125,-49.8046875,0.0
97307.804829541,141.11328125,-27.83203125,-45.8984375,-30.2734375,0.0
97307.808735791,-45.8984375,-28.3203125,-44.921875,-20.99609375,0.0
97307.812642041,-225.5859375,-24.4140625,-45.8984375,-42.96875,0.0
97307.816548291,-6.8359375,-23.4375,-47.8515625,-55.17578125,0.0
97307.820454541,160.15625,-27.83203125,-51.7578125,-30.76171875,0.0
97307.824360791,47.8515625,-31.25,-51.26953125,-3.41796875,0.0
97307.828267041,-193.84765625,-36.1328125,-47.36328125,-13.671875,0.0
97307.832173291,-94.7265625,-38.57421875,-44.921875,-34.1796875,0.0
97307.834519416,100.09765625,-40.0390625,-43.9453125,-26.85546875,0.0
97307.838425666,70.3125,-38.57421875,-47.36328125,-4.39453125,0.0
97307.842331916,-161.62109375,-34.66796875,-52.24609375,-10.25390625,0.0
97307.846238166,-162.59765625,-38.0859375,-57.12890625,-41.015625,0.0
97307.850144416,78.125,-40.0390625,-58.10546875,-37.59765625,0.0
97307.854050666,125.48828125,-36.1328125,-54.6875,-10.7421875,0.0
97307.857956916,-87.40234375,-31.73828125,-54.6875,0.48828125,0.0
97307.861863166,-218.26171875,-32.71484375,-56.640625,-26.85546875,0.0
97307.865769416,3.41796875,-32.2265625,-53.22265625,-44.43359375,0.0
97307.869675666,137.20703125,-28.80859375,-51.26953125,-19.04296875,0.0
97307.873581916,5.37109375,-26.85546875,-49.31640625,-6.8359375,0.0
97307.877488166,-213.37890625,-32.2265625,-49.8046875,-30.2734375,0.0
97307.882640333,-48.828125,-36.1328125,-50.78125,-60.546875,0.0
97307.886546583,143.06640625,-35.64453125,-51.7578125,-46.38671875,0.0
97307.890452833,68.359375,-40.52734375,-56.15234375,-18.06640625,0.0
97307.894359083,-204.1015625,-41.015625,-67.87109375,-31.25,0.0
97307.898265333,-138.671875,-36.1328125,-70.80078125,-67.3828125,0.0
97307.902171583,96.6796875,-33.69140625,-62.5,-48.828125,0.0
97307.906077833,80.078125,-38.0859375,-59.5703125,-10.7421875,0.0
97307.909984083,-163.0859375,-36.62109375,-61.5234375,-6.34765625,0.0
97307.913890333,-189.94140625,-32.2265625,-62.01171875,-41.50390625,0.0
97307.917796583,85.44921875,-33.203125,-61.03515625,-59.08203125,0.0
97307.921702833,153.3203125,-31.25,-63.4765625,-10.7421875,0.0
97307.925609083,-71.77734375,-34.1796875,-68.84765625,2.44140625,0.0
97307.9497055,-220.21484375,-37.109375,-71.77734375,-31.25,0.0
97307.9357175,11.71875,-36.1328125,-69.82421875,-47.8515625,0.0
97307.93962375,128.90625,-36.1328125,-62.98828125,-20.5078125,0.0
97307.94353,-7.8125,-39.0625,-67.3828125,-3.90625,0.0
97307.94743625,-225.5859375,-42.48046875,-73.2421875,-26.85546875,0.0
97307.9513425,-89.84375,-39.0625,-74.70703125,-47.8515625,0.0
97307.95524875,107.421875,-40.0390625,-74.70703125,-47.8515625,0.0
97307.959155,50.78125,-40.52734375,-63.96484375,-16.11328125,0.0
97307.96306125,-210.44921875,-39.0625,-62.98828125,-12.6953125,0.0
97307.9669675,-157.71484375,-42.48046875,-66.89453125,-45.41015625,0.0
97307.97087375,90.33203125,-40.0390625,-69.82421875,-46.875,0.0
97307.97478,113.76953125,-36.62109375,-72.75390625,-22.94921875,0.0
97307.951930375,-115.72265625,-39.0625,-69.3359375,-24.90234375,0.0
97307.955836625,-185.05859375,-37.59765625,-69.82421875,-53.7109375,0.0
97307.959742875,53.22265625,-31.25,-73.2421875,-61.03515625,0.0
97307.963649125,122.55859375,-30.2734375,-71.77734375,-23.92578125,0.0
97307.967555375,-57.6171875,-27.83203125,-68.359375,9.27734375,0.0
97307.971461625,-240.72265625,-32.71484375,-71.77734375,-22.94921875,0.0
97307.975367875,-31.25,-37.109375,-71.2890625,-60.05859375,0.0
97307.979274125,129.8828125,-35.15625,-71.77734375,-31.73828125,0.0
97307.983180375,15.13671875,-31.25,-75.1953125,-8.7890625,0.0
97307.987086625,-212.40234375,-34.1796875,-76.66015625,-21.97265625,0.0
97307.990992875,-70.80078125,-38.0859375,-73.73046875,-42.96875,0.0
97307.994899125,159.1796875,-36.62109375,-70.3125,-42.48046875,0.0
97308.021407583,126.46484375,-35.15625,-77.1484375,-22.4609375,0.0
97308.025313833,-147.94921875,-35.15625,-83.984375,-14.6484375,0.0
97308.029220083,-177.734375,-37.59765625,-77.63671875,-27.34375,0.0
97308.033126333,57.12890625,-41.9921875,-73.73046875,-23.92578125,0.0
97308.037032583,113.76953125,-41.9921875,-72.75390625,0.0,0.0
97308.040938833,-98.14453125,-41.9921875,-71.77734375,-0.48828125,0.0
97308.044845083,-219.7265625,-44.43359375,-74.70703125,-21.484375,0.0
97308.048751333,16.6015625,-41.9921875,-74.21875,-31.73828125,0.0
97308.052657583,132.32421875,-38.57421875,-70.3125,-6.34765625,0.0
97308.056563833,-29.296875,-38.57421875,-75.68359375,4.8828125,0.0
97308.060470083,-217.28515625,-38.0859375,-82.51953125,-24.90234375,0.0
97308.064376333,-23.92578125,-36.62109375,-79.58984375,-49.31640625,0.0
97308.093293791,148.4375,-38.0859375,-75.68359375,-31.25,0.0
97308.097200041,49.8046875,-40.52734375,-78.125,-14.6484375,0.0
97308.101106291,-203.61328125,-34.1796875,-76.66015625,-28.3203125,0.0
97308.105012541,-125.48828125,-30.2734375,-71.2890625,-42.48046875,0.0
97308.108918791,104.00390625,-32.2265625,-71.77734375,-35.64453125,0.0
97308.112825041,91.30859375,-33.69140625,-73.2421875,-16.11328125,0.0
97308.116731291,-160.15625,-32.2265625,-72.265625,-18.5546875,0.0
97308.120637541,-166.015625,-31.25,-74.70703125,-53.22265625,0.0
97308.124543791,87.890625,-33.203125,-77.63671875,-57.12890625,0.0
97308.128450041,148.4375,-29.296875,-77.1484375,-19.53125,0.0
97308.132356291,-58.59375,-31.25,-73.2421875,-14.6484375,0.0
97308.136262541,-207.03125,-38.0859375,-65.91796875,-39.55078125,0.0
97308.115942333,14.16015625,-33.69140625,-62.01171875,-48.828125,0.0
97308.119848583,139.16015625,-29.78515625,-60.05859375,-21.97265625,0.0
97308.123754833,-10.25390625,-33.69140625,-62.5,-0.48828125,0.0
97308.127661083,-225.5859375,-34.1796875,-65.4296875,-9.765625,0.0
97308.131567333,-54.6875,-32.2265625,-61.03515625,-30.76171875,0.0
97308.135473583,120.1171875,-34.1796875,-59.5703125,-24.4140625,0.0
97308.139379833,44.921875,-38.0859375,-62.98828125,-2.9296875,0.0
97308.143286083,-197.75390625,-38.57421875,-64.453125,-7.32421875,0.0
97308.147192333,-130.37109375,-34.66796875,-64.453125,-32.71484375,0.0
97308.151098583,101.07421875,-32.2265625,-63.96484375,-31.25,0.0
97308.155004833,118.1640625,-34.1796875,-59.5703125,-5.37109375,0.0
97308.158911083,-103.515625,-34.1796875,-55.17578125,-1.46484375,0.0
97308.163348208,-167.96875,-33.69140625,-62.5,-23.4375,0.0
97308.167254458,60.05859375,-41.50390625,-65.4296875,-31.25,0.0
97308.171160708,146.97265625,-44.921875,-59.5703125,-13.671875,0.0
97308.175066958,-37.109375,-34.66796875,-53.22265625,3.41796875,0.0
97308.178973208,-201.171875,-34.1796875,-51.26953125,-9.765625,0.0
97308.182879458,22.94921875,-37.59765625,-51.7578125,-40.52734375,0.0
97308.186785708,171.38671875,-36.62109375,-53.22265625,-33.69140625,0.0
97308.190691958,54.6875,-36.62109375,-50.78125,-5.859375,0.0
97308.194598208,-180.6640625,-34.1796875,-53.7109375,-16.11328125,0.0
97308.198504458,-64.94140625,-32.71484375,-50.78125,-41.9921875,0.0
97308.202410708,133.30078125,-35.64453125,-40.52734375,-26.3671875,0.0
97308.206316958,82.51953125,-45.41015625,-42.48046875,-1.46484375,0.0
97308.212411458,-172.8515625,-46.875,-41.9921875,-3.41796875,0.0
97308.216317708,-138.18359375,-39.0625,-36.62109375,-38.0859375,0.0
97308.220223958,97.16796875,-37.59765625,-33.69140625,-41.50390625,0.0
97308.224130208,118.65234375,-35.64453125,-31.25,1.46484375,0.0
97308.228036458,-100.5859375,-34.66796875,-29.78515625,18.06640625,0.0
97308.231942708,-187.98828125,-38.57421875,-33.69140625,-32.2265625,0.0
97308.235848958,49.31640625,-37.59765625,-32.2265625,-59.5703125,0.0
97308.239755208,160.15625,-36.62109375,-26.3671875,-19.53125,0.0
97308.243661458,-23.4375,-38.0859375,-24.90234375,-5.37109375,0.0
97308.247567708,-211.9140625,-33.69140625,-22.4609375,-32.2265625,0.0
97308.251473958,4.8828125,-31.73828125,-14.16015625,-50.78125,0.0
97308.255380208,136.71875,-34.66796875,-13.18359375,-27.83203125,0.0
97308.261187791,19.04296875,-32.71484375,-23.4375,-15.13671875,0.0
97308.265094041,-208.984375,-30.2734375,-29.78515625,-26.85546875,0.0
97308.269000291,-106.93359375,-28.80859375,-28.80859375,-46.875,0.0
97308.272906541,103.515625,-26.3671875,-27.34375,-30.2734375,0.0
97308.276812791,95.21484375,-28.3203125,-27.83203125,-3.41796875,0.0
97308.280719041,-136.23046875,-32.2265625,-24.90234375,-8.7890625,0.0
97308.284625291,-141.6015625,-28.3203125,-20.5078125,-47.36328125,0.0
97308.288531541,83.49609375,-25.390625,-20.99609375,-54.6875,0.0
97308.292437791,126.46484375,-28.3203125,-22.94921875,-24.90234375,0.0
97308.296344041,-70.3125,-31.25,-23.4375,-17.08984375,0.0
97308.300250291,-196.77734375,-37.59765625,-22.4609375,-35.64453125,0.0
97308.304156541,33.203125,-43.9453125,-26.85546875,-56.15234375,0.0
97308.307697,152.83203125,-42.96875,-28.80859375,-28.80859375,0.0
97308.31160325,2.44140625,-34.66796875,-25.87890625,-1.953125,0.0
97308.3155095,-207.03125,-29.296875,-26.85546875,-20.01953125,0.0
97308.31941575,-22.4609375,-32.71484375,-26.3671875,-28.3203125,0.0
97308.323322,148.4375,-31.25,-26.3671875,-13.671875,0.0
97308.32722825,41.015625,-32.2265625,-30.2734375,-22.94921875,0.0
97308.3311345,-199.21875,-31.73828125,-35.15625,-33.203125,0.0
97308.33504075,-134.27734375,-27.83203125,-40.0390625,-45.8984375,0.0
97308.338947,86.42578125,-27.83203125,-36.62109375,-38.0859375,0.0
97308.34285325,92.7734375,-29.78515625,-35.64453125,-17.08984375,0.0
97308.3467595,-153.3203125,-35.64453125,-38.0859375,-26.3671875,0.0
97308.35066575,-182.6171875,-33.69140625,-36.1328125,-61.03515625,0.0
97308.350158041,68.359375,-30.2734375,-40.0390625,-72.265625,0.0
97308.354064291,142.578125,-34.1796875,-46.38671875,-37.59765625,0.0
97308.357970541,-50.78125,-34.1796875,-44.921875,-10.25390625,0.0
97308.361876791,-214.35546875,-28.3203125,-42.96875,-34.1796875,0.0
97308.365783041,6.34765625,-29.78515625,-49.8046875,-51.7578125,0.0
97308.369689291,149.4140625,-33.69140625,-52.734375,-21.97265625,0.0
97308.373595541,9.27734375,-30.76171875,-52.734375,-2.9296875,0.0
97308.377501791,-216.30859375,-32.2265625,-50.78125,-20.01953125,0.0
97308.381408041,-42.96875,-37.59765625,-47.36328125,-50.29296875,0.0
97308.385314291,149.4140625,-30.76171875,-47.36328125,-41.9921875,0.0
97308.389220541,53.22265625,-26.3671875,-46.875,-11.23046875,0.0
97308.393126791,-214.84375,-27.34375,-48.33984375,1.46484375,0.0
97308.415269375,-154.296875,-23.92578125,-44.921875,-22.94921875,0.0
97308.401211166,88.8671875,-30.2734375,-41.9921875,-31.25,0.0
97308.405117416,103.515625,-31.73828125,-50.78125,-15.625,0.0
97308.409023666,-119.62890625,-31.25,-52.734375,-10.7421875,0.0
97308.412929916,-175.29296875,-32.71484375,-46.38671875,-36.62109375,0.0
97308.416836166,62.5,-27.83203125,-43.9453125,-47.8515625,0.0
97308.420742416,121.09375,-28.80859375,-45.8984375,-17.08984375,0.0
97308.424648666,-76.66015625,-32.2265625,-48.33984375,-6.8359375,0.0
97308.428554916,-244.140625,-36.62109375,-53.22265625,-34.66796875,0.0
97308.432461166,-28.80859375,-38.0859375,-55.17578125,-62.01171875,0.0
97308.436367416,120.60546875,-39.55078125,-49.8046875,-47.36328125,0.0
97308.440273666,3.41796875,-40.0390625,-53.22265625,-24.4140625,0.0
97308.445099416,-216.30859375,-32.71484375,-58.10546875,-27.83203125,0.0
97308.449005666,-87.890625,-32.2265625,-54.19921875,-51.7578125,0.0
97308.452911916,107.91015625,-35.15625,-49.8046875,-40.0390625,0.0
97308.456818166,73.73046875,-31.73828125,-52.734375,-5.859375,0.0
97308.460724416,-170.41015625,-35.64453125,-56.15234375,-14.6484375,0.0
97308.464630666,-150.390625,-33.203125,-56.15234375,-47.8515625,0.0
97308.468536916,98.14453125,-33.203125,-55.17578125,-44.921875,0.0
97308.472443166,130.859375,-36.1328125,-52.24609375,-14.16015625,0.0
97308.476349416,-106.4453125,-34.1796875,-50.29296875,-7.8125,0.0
97308.480255666,-203.125,-38.0859375,-50.29296875,-37.109375,0.0
97308.484161916,41.9921875,-41.50390625,-50.29296875,-56.15234375,0.0
97308.488068166,147.94921875,-33.69140625,-46.875,-33.203125,0.0
97308.493505208,-26.3671875,-33.203125,-44.921875,-7.32421875,0.0
97308.497411458,-242.1875,-40.0390625,-46.38671875,-20.01953125,0.0
97308.501317708,-41.9921875,-38.57421875,-48.828125,-41.9921875,0.0
97308.505223958,139.16015625,-39.55078125,-52.24609375,-31.73828125,0.0
97308.509130208,43.9453125,-44.921875,-53.7109375,-10.7421875,0.0
97308.513036458,-195.80078125,-44.43359375,-58.10546875,-18.06640625,0.0
97308.516942708,-92.7734375,-38.0859375,-59.5703125,-54.19921875,0.0
97308.520848958,122.55859375,-38.0859375,-57.6171875,-49.31640625,0.0
97308.524755208,100.5859375,-37.59765625,-55.17578125,-18.5546875,0.0
97308.528661458,-149.4140625,-33.203125,-56.640625,-20.01953125,0.0
97308.532567708,-157.71484375,-31.73828125,-60.05859375,-50.29296875,0.0
97308.536473958,104.98046875,-35.64453125,-60.05859375,-54.6875,0.0
97308.54019225,149.4140625,-30.76171875,-55.6640625,-22.94921875,0.0
97308.5440985,-76.66015625,-34.1796875,-58.59375,-10.25390625,0.0
97308.54800475,-204.1015625,-44.921875,-60.546875,-31.25,0.0
97308.551911,36.62109375,-34.1796875,-55.6640625,-41.015625,0.0
97308.55581725,147.4609375,-27.34375,-59.5703125,-28.3203125,0.0
97308.5597235,-17.08984375,-28.3203125,-59.08203125,-23.92578125,0.0
97308.56362975,-230.46875,-27.34375,-53.7109375,-34.1796875,0.0
97308.567536,-49.31640625,-38.0859375,-53.22265625,-65.91796875,0.0
97308.57144225,146.97265625,-40.52734375,-52.734375,-37.109375,0.0
97308.5753485,66.40625,-32.71484375,-52.734375,7.32421875,0.0
97308.57925475,-189.453125,-40.0390625,-57.12890625,-24.90234375,0.0
97308.583161,-124.0234375,-41.50390625,-61.5234375,-53.7109375,0.0
97308.587878416,104.98046875,-31.25,-61.5234375,-35.64453125,0.0
97308.591784666,114.2578125,-32.71484375,-57.6171875,4.8828125,0.0
97308.595690916,-128.90625,-34.1796875,-61.03515625,11.23046875,0.0
97308.599597166,-184.08203125,-31.73828125,-61.03515625,-30.76171875,0.0
97308.603503416,61.5234375,-33.203125,-55.17578125,-48.828125,0.0
97308.607409666,131.34765625,-31.25,-54.6875,-24.90234375,0.0
97308.611315916,-65.91796875,-34.1796875,-58.10546875,-17.578125,0.0
97308.615222166,-222.16796875,-39.55078125,-59.5703125,-45.41015625,0.0
97308.619128416,-4.39453125,-39.55078125,-53.7109375,-49.8046875,0.0
97308.623034666,129.8828125,-37.59765625,-57.12890625,-25.87890625,0.0
97308.626940916,22.4609375,-40.0390625,-65.91796875,-22.4609375,0.0
97308.630847166,-199.70703125,-44.921875,-64.94140625,-44.921875,0.0
97308.634070625,-76.66015625,-41.9921875,-59.5703125,-61.5234375,0.0
97308.637976875,124.0234375,-30.2734375,-53.7109375,-35.64453125,0.0
97308.641883125,67.87109375,-24.90234375,-51.7578125,-4.8828125,0.0
97308.645789375,-197.75390625,-26.85546875,-56.15234375,-13.18359375,0.0
97308.649695625,-145.01953125,-24.90234375,-57.6171875,-53.7109375,0.0
97308.653601875,92.28515625,-21.97265625,-53.7109375,-53.22265625,0.0
97308.657508125,116.2109375,-26.85546875,-51.7578125,-19.53125,0.0
97308.661414375,-105.46875,-33.203125,-54.6875,-12.6953125,0.0
97308.665320625,-204.58984375,-33.203125,-55.6640625,-22.94921875,0.0
97308.669226875,61.03515625,-32.71484375,-51.7578125,-32.71484375,0.0
97308.673133125,139.16015625,-33.69140625,-57.12890625,-17.08984375,0.0
97308.677039375,-63.96484375,-34.1796875,-62.01171875,-9.27734375,0.0
97308.699370791,-250.0,-37.59765625,-59.08203125,-42.96875,0.0
97308.685417958,-44.43359375,-36.62109375,-55.17578125,-65.91796875,0.0
97308.689324208,126.953125,-34.66796875,-53.22265625,-25.390625,0.0
97308.693230458,18.06640625,-37.109375,-52.24609375,2.44140625,0.0
97308.697136708,-222.16796875,-40.52734375,-54.6875,-14.16015625,0.0
97308.701042958,-100.5859375,-42.48046875,-59.5703125,-37.109375,0.0
97308.704949208,112.79296875,-35.64453125,-58.10546875,-43.45703125,0.0
97308.708855458,93.26171875,-28.3203125,-54.6875,-16.11328125,0.0
97308.712761708,-137.6953125,-31.25,-59.08203125,-15.13671875,0.0
97308.716667958,-145.5078125,-28.3203125,-63.4765625,-62.5,0.0
97308.720574208,94.23828125,-28.3203125,-61.5234375,-62.98828125,0.0
97308.724480458,146.97265625,-33.69140625,-54.6875,-18.06640625,0.0
97308.745763708,-68.84765625,-40.52734375,-55.17578125,-9.27734375,0.0
97308.730077208,-175.78125,-39.55078125,-60.05859375,-36.62109375,0.0
97308.733983458,75.1953125,-36.1328125,-61.03515625,-53.22265625,0.0
97308.737889708,184.5703125,-32.71484375,-64.453125,-36.1328125,0.0
97308.741795958,28.80859375,-34.66796875,-70.80078125,-19.04296875,0.0
97308.745702208,-196.77734375,-39.55078125,-74.21875,-33.69140625,0.0
97308.749608458,-59.5703125,-34.66796875,-70.80078125,-62.98828125,0.0
97308.753514708,115.234375,-31.73828125,-65.4296875,-41.015625,0.0
97308.757420958,62.01171875,-33.69140625,-63.96484375,-17.08984375,0.0
97308.761327208,-186.5234375,-42.96875,-62.5,-25.87890625,0.0
97308.765233458,-120.1171875,-47.36328125,-60.05859375,-51.26953125,0.0
97308.769139708,112.79296875,-38.57421875,-60.546875,-41.015625,0.0
97308.774094708,114.2578125,-37.109375,-62.5,2.44140625,0.0
97308.778000958,-132.8125,-40.0390625,-68.359375,2.9296875,0.0
97308.781907208,-168.9453125,-37.59765625,-69.82421875,-29.78515625,0.0
97308.785813458,83.0078125,-41.9921875,-66.89453125,-34.66796875,0.0
97308.789719708,137.6953125,-41.50390625,-72.75390625,-0.48828125,0.0
97308.793625958,-77.63671875,-34.66796875,-79.58984375,3.90625,0.0
97308.797532208,-214.84375,-30.76171875,-78.61328125,-39.0625,0.0
97308.801438458,23.92578125,-30.76171875,-70.3125,-64.94140625,0.0
97308.805344708,170.8984375,-30.76171875,-63.4765625,-38.57421875,0.0
97308.809250958,26.3671875,-27.83203125,-60.546875,-7.8125,0.0
97308.813157208,-205.078125,-32.71484375,-63.4765625,-14.6484375,0.0
97308.817063458,-49.31640625,-34.1796875,-69.3359375,-37.109375,0.0
97308.822449541,149.90234375,-31.25,-69.3359375,-27.34375,0.0
97308.826355791,89.35546875,-29.78515625,-72.265625,-1.953125,0.0
97308.830262041,-178.7109375,-34.66796875,-81.0546875,-1.953125,0.0
97308.834168291,-136.71875,-34.66796875,-77.1484375,-30.2734375,0.0
97308.838074541,80.56640625,-30.2734375,-68.359375,-37.59765625,0.0
97308.841980791,71.2890625,-30.2734375,-70.80078125,-15.13671875,0.0
97308.845887041,-161.62109375,-33.203125,-73.73046875,-11.23046875,0.0
97308.849793291,-210.44921875,-35.64453125,-75.1953125,-45.8984375,0.0
97308.853699541,32.2265625,-35.64453125,-79.58984375,-58.59375,0.0
97308.857605791,115.72265625,-37.109375,-81.0546875,-21.484375,0.0
97308.861512041,-60.05859375,-40.0390625,-73.73046875,4.39453125,0.0
97308.865418291,-242.67578125,-41.9921875,-72.265625,-17.08984375,0.0
97308.871077666,-38.0859375,-41.50390625,-83.0078125,-34.1796875,0.0
97308.874983916,115.234375,-40.0390625,-84.47265625,-8.30078125,0.0
97308.878890166,10.7421875,-39.0625,-84.9609375,-7.32421875,0.0
97308.882796416,-216.796875,-35.15625,-85.9375,-41.50390625,0.0
97308.886702666,-96.19140625,-35.15625,-81.54296875,-75.1953125,0.0
97308.890608916,105.95703125,-41.015625,-82.51953125,-62.01171875,0.0
97308.894515166,53.22265625,-39.0625,-79.58984375,-27.83203125,0.0
97308.898421416,-203.125,-37.59765625,-75.1953125,-26.85546875,0.0
97308.902327666,-161.62109375,-36.1328125,-76.171875,-54.19921875,0.0
97308.906233916,85.44921875,-35.15625,-77.63671875,-48.828125,0.0
97308.910140166,127.44140625,-34.66796875,-77.1484375,-18.06640625,0.0
97308.914046416,-85.44921875,-39.55078125,-77.63671875,-14.6484375,0.0
97308.913585125,-192.87109375,-44.43359375,-81.54296875,-44.43359375,0.0
97308.917491375,47.36328125,-34.1796875,-79.1015625,-51.7578125,0.0
97308.921397625,150.87890625,-33.69140625,-76.171875,-23.92578125,0.0
97308.925303875,-17.08984375,-40.52734375,-80.078125,-16.11328125,0.0
97308.929210125,-235.83984375,-40.52734375,-85.9375,-34.66796875,0.0
97308.933116375,-56.640625,-39.0625,-81.0546875,-41.015625,0.0
97308.937022625,124.51171875,-43.9453125,-79.1015625,-21.484375,0.0
97308.940928875,31.25,-51.7578125,-85.9375,-15.625,0.0
97308.944835125,-214.35546875,-47.8515625,-82.51953125,-25.390625,0.0
97308.948741375,-110.3515625,-35.64453125,-78.61328125,-42.48046875,0.0
97308.952647625,111.81640625,-29.78515625,-76.171875,-31.73828125,0.0
97308.956553875,85.44921875,-29.78515625,-68.84765625,8.30078125,0.0
97308.962844208,-165.52734375,-34.66796875,-71.2890625,17.578125,0.0
97308.966750458,-187.5,-37.59765625,-68.359375,-7.8125,0.0
97308.970656708,72.75390625,-34.1796875,-66.89453125,-3.90625,0.0
97308.974562958,137.6953125,-41.9921875,-74.70703125,8.7890625,0.0
97308.978469208,-73.2421875,-49.8046875,-74.70703125,-12.6953125,0.0
97308.982375458,-204.58984375,-45.8984375,-72.75390625,-47.8515625,0.0
97308.986281708,29.78515625,-40.0390625,-71.2890625,-47.8515625,0.0
97308.990187958,156.73828125,-37.59765625,-71.2890625,-27.34375,0.0
97308.994094208,-6.34765625,-40.0390625,-67.87109375,-7.8125,0.0
97308.998000458,-228.02734375,-44.43359375,-62.01171875,1.46484375,0.0
97309.001906708,-39.0625,-43.45703125,-60.546875,-24.4140625,0.0
97309.005812958,157.2265625,-36.62109375,-58.59375,-33.69140625,0.0
97309.009984208,72.75390625,-37.59765625,-58.59375,-13.671875,0.0
97309.013890458,-185.546875,-42.96875,-60.546875,-13.18359375,0.0
97309.017796708,-128.41796875,-35.15625,-55.17578125,-44.43359375,0.0
97309.021702958,91.796875,-35.15625,-60.546875,-47.8515625,0.0
97309.025609208,101.07421875,-41.015625,-64.453125,-15.625,0.0
97309.029515458,-130.859375,-41.50390625,-50.29296875,5.37109375,0.0
97309.033421708,-167.48046875,-42.48046875,-47.36328125,-16.6015625,0.0
97309.037327958,81.0546875,-36.62109375,-49.8046875,-23.4375,0.0
97309.041234208,128.41796875,-34.1796875,-47.8515625,-11.23046875,0.0
97309.045140458,-76.66015625,-36.62109375,-47.8515625,-22.4609375,0.0
97309.049046708,-231.4453125,-37.109375,-51.7578125,-41.50390625,0.0
97309.052952958,-5.37109375,-37.109375,-50.29296875,-56.15234375,0.0
97309.054848875,143.06640625,-31.73828125,-42.48046875,-30.2734375,0.0
97309.058755125,21.97265625,-34.1796875,-39.55078125,9.27734375,0.0
97309.062661375,-217.7734375,-44.921875,-43.9453125,10.25390625,0.0
97309.066567625,-67.87109375,-41.50390625,-41.9921875,-12.6953125,0.0
97309.070473875,140.13671875,-35.64453125,-38.0859375,-21.97265625,0.0
97309.074380125,90.8203125,-28.80859375,-36.62109375,-10.7421875,0.0
97309.078286375,-146.97265625,-26.85546875,-39.0625,-8.30078125,0.0
97309.082192625,-135.7421875,-25.390625,-35.64453125,-26.85546875,0.0
97309.086098875,84.47265625,-29.296875,-25.87890625,-23.92578125,0.0
97309.090005125,122.0703125,-36.1328125,-25.87890625,-12.6953125,0.0
97309.093911375,-110.83984375,-35.15625,-28.3203125,-14.6484375,0.0
97309.097817625,-204.1015625,-39.0625,-31.25,-41.50390625,0.0
97309.120582833,48.33984375,-38.0859375,-35.15625,-46.875,0.0
97309.106585333,158.203125,-31.25,-29.296875,-17.08984375,0.0
97309.110491583,-19.04296875,-32.71484375,-23.4375,-13.18359375,0.0
97309.114397833,-209.9609375,-38.57421875,-21.484375,-41.015625,0.0
97309.118304083,4.39453125,-34.1796875,-17.08984375,-54.19921875,0.0
97309.122210333,166.015625,-27.83203125,-21.484375,-28.80859375,0.0
97309.126116583,38.57421875,-29.296875,-23.4375,5.37109375,0.0
97309.130022833,-208.984375,-31.73828125,-20.99609375,7.32421875,0.0
97309.133929083,-73.2421875,-30.2734375,-24.90234375,-29.78515625,0.0
97309.137835333,136.71875,-32.2265625,-24.90234375,-33.203125,0.0
97309.141741583,64.94140625,-34.66796875,-25.390625,0.0,0.0
97309.145647833,-197.75390625,-35.15625,-24.90234375,1.46484375,0.0
97309.150930333,-173.828125,-35.64453125,-23.4375,-48.828125,0.0
97309.154836583,75.1953125,-34.1796875,-26.85546875,-60.546875,0.0
97309.158742833,118.1640625,-33.203125,-25.87890625,-20.5078125,0.0
97309.162649083,-92.7734375,-31.25,-23.92578125,-5.37109375,0.0
97309.166555333,-213.37890625,-33.203125,-32.71484375,-23.4375,0.0
97309.170461583,16.11328125,-37.59765625,-38.57421875,-48.828125,0.0
97309.174367833,125.48828125,-36.62109375,-38.57421875,-47.8515625,0.0
97309.178274083,-23.92578125,-36.1328125,-33.69140625,-31.25,0.0
97309.182180333,-206.0546875,-40.52734375,-37.109375,-49.8046875,0.0
97309.186086583,-22.94921875,-33.69140625,-41.50390625,-68.359375,0.0
97309.189992833,139.6484375,-31.25,-36.62109375,-43.45703125,0.0
97309.193899083,53.22265625,-39.55078125,-40.0390625,-9.27734375,0.0
97309.196461416,-192.87109375,-33.69140625,-39.0625,-14.6484375,0.0
97309.200367666,-113.76953125,-32.2265625,-37.109375,-51.26953125,0.0
97309.204273916,113.28125,-40.0390625,-40.52734375,-46.38671875,0.0
97309.208180166,103.515625,-36.62109375,-39.0625,-16.11328125,0.0
97309.212086416,-153.80859375,-30.2734375,-37.59765625,-14.6484375,0.0
97309.215992666,-202.1484375,-30.2734375,-39.55078125,-35.15625,0.0
97309.219898916,31.25,-28.3203125,-41.9921875,-41.9921875,0.0
97309.223805166,97.16796875,-27.83203125,-41.015625,-13.671875,0.0
97309.227711416,-102.5390625,-37.109375,-43.9453125,-14.16015625,0.0
97309.231617666,-250.9765625,-35.64453125,-43.9453125,-39.0625,0.0
97309.235523916,-14.16015625,-28.80859375,-37.59765625,-39.55078125,0.0
97309.239430166,135.7421875,-28.3203125,-43.45703125,-11.23046875,0.0
97309.245296833,-12.6953125,-30.76171875,-46.875,17.578125,0.0
97309.249203083,-226.5625,-26.85546875,-41.015625,0.0,0.0
97309.253109333,-53.7109375,-25.390625,-45.8984375,-51.7578125,0.0
97309.257015583,122.0703125,-32.2265625,-45.8984375,-54.6875,0.0
97309.260921833,55.17578125,-32.2265625,-39.55078125,-25.390625,0.0
97309.264828083,-191.40625,-32.71484375,-43.45703125,-15.625,0.0
97309.268734333,-128.41796875,-30.2734375,-55.17578125,-31.73828125,0.0
97309.272640583,113.28125,-25.390625,-55.6640625,-43.45703125,0.0
97309.276546833,136.23046875,-25.390625,-45.41015625,-28.80859375,0.0
97309.280453083,-112.3046875,-29.78515625,-39.55078125,-17.578125,0.0
97309.284359333,-196.2890625,-32.2265625,-45.8984375,-52.734375,0.0
97309.288265583,48.33984375,-31.73828125,-51.26953125,-74.70703125,0.0
97309.292019958,140.625,-32.2265625,-50.78125,-37.109375,0.0
97309.295926208,-38.0859375,-30.76171875,-50.29296875,-21.97265625,0.0
97309.299832458,-219.23828125,-27.83203125,-48.828125,-49.31640625,0.0
97309.303738708,-21.484375,-30.76171875,-52.24609375,-69.3359375,0.0
97309.307644958,123.046875,-33.203125,-56.640625,-42.96875,0.0
97309.311551208,9.765625,-33.69140625,-61.03515625,-9.27734375,0.0
97309.315457458,-227.05078125,-34.1796875,-62.98828125,-9.765625,0.0
97309.319363708,-94.7265625,-27.34375,-53.7109375,-34.1796875,0.0
97309.323269958,107.91015625,-27.34375,-46.38671875,-25.87890625,0.0
97309.327176208,58.59375,-34.1796875,-53.7109375,1.953125,0.0
97309.331082458,-189.453125,-36.1328125,-62.01171875,-11.71875,0.0
97309.334988708,-167.96875,-34.1796875,-55.17578125,-41.015625,0.0
97309.336790875,82.51953125,-32.2265625,-49.31640625,-41.50390625,0.0
97309.340697125,125.9765625,-27.34375,-48.828125,-7.32421875,0.0
97309.344603375,-108.88671875,-32.2265625,-53.7109375,-5.859375,0.0
97309.348509625,-207.03125,-32.71484375,-59.08203125,-47.8515625,0.0
97309.352415875,47.36328125,-34.1796875,-52.734375,-59.08203125,0.0
97309.356322125,145.5078125,-44.921875,-48.828125,-42.96875,0.0
97309.360228375,-30.2734375,-41.015625,-53.7109375,-30.76171875,0.0
97309.364134625,-214.35546875,-33.69140625,-54.6875,-32.71484375,0.0
97309.368040875,-22.94921875,-36.1328125,-50.78125,-33.69140625,0.0
97309.371947125,125.9765625,-39.0625,-52.734375,-21.97265625,0.0
97309.375853375,29.296875,-38.0859375,-50.78125,-20.5078125,0.0
97309.379759625,-210.44921875,-35.64453125,-48.33984375,-24.4140625,0.0
97309.382881208,-123.046875,-33.69140625,-51.7578125,-51.26953125,0.0
97309.386787458,104.4921875,-30.76171875,-53.7109375,-60.05859375,0.0
97309.390693708,102.5390625,-31.73828125,-54.19921875,-31.73828125,0.0
97309.394599958,-163.0859375,-35.15625,-52.734375,-25.87890625,0.0
97309.398506208,-200.68359375,-36.62109375,-50.29296875,-49.8046875,0.0
97309.402412458,34.66796875,-37.109375,-46.875,-42.48046875,0.0
97309.406318708,97.65625,-37.109375,-48.828125,-15.13671875,0.0
97309.410224958,-102.05078125,-40.0390625,-46.875,1.46484375,0.0
97309.414131208,-223.14453125,-36.1328125,-43.45703125,-25.390625,0.0
97309.418037458,32.2265625,-34.66796875,-45.8984375,-53.22265625,0.0
97309.421943708,133.30078125,-38.0859375,-50.78125,-7.32421875,0.0
97309.425849958,-49.31640625,-39.0625,-51.26953125,22.94921875,0.0
97309.42977125,-259.765625,-33.69140625,-50.29296875,5.37109375,0.0
97309.4336775,-88.37890625,-30.2734375,-54.19921875,-41.9921875,0.0
97309.43758375,101.5625,-29.78515625,-50.78125,-45.8984375,0.0
97309.44149,31.25,-29.296875,-43.9453125,-3.41796875,0.0
97309.44539625,-206.0546875,-31.73828125,-46.38671875,-8.7890625,0.0
97309.4493025,-137.20703125,-34.66796875,-58.10546875,-50.78125,0.0
97309.45320875,86.9140625,-38.57421875,-61.03515625,-47.8515625,0.0
97309.457115,80.078125,-39.55078125,-59.08203125,-9.765625,0.0
97309.46102125,-160.64453125,-38.0859375,-64.94140625,-6.8359375,0.0
97309.4649275,-198.73046875,-41.015625,-60.05859375,-43.45703125,0.0
97309.46883375,45.8984375,-43.45703125,-52.24609375,-49.31640625,0.0
97309.47274,125.9765625,-40.52734375,-52.734375,-10.7421875,0.0
97309.473940875,-56.640625,-36.62109375,-57.12890625,-1.953125,0.0
97309.477847125,-209.9609375,-31.73828125,-62.98828125,-38.0859375,0.0
97309.481753375,5.37109375,-25.87890625,-61.5234375,-59.08203125,0.0
97309.485659625,137.6953125,-27.83203125,-61.5234375,-34.66796875,0.0
97309.489565875,-3.90625,-40.0390625,-67.87109375,-18.5546875,0.0
97309.493472125,-230.95703125,-40.52734375,-63.4765625,-38.57421875,0.0
97309.497378375,-86.9140625,-28.3203125,-55.17578125,-47.8515625,0.0
97309.501284625,98.14453125,-29.296875,-49.8046875,-26.3671875,0.0
97309.505190875,50.29296875,-38.57421875,-45.8984375,-12.6953125,0.0
97309.509097125,-182.12890625,-37.59765625,-46.38671875,-28.3203125,0.0
97309.513003375,-145.99609375,-37.109375,-52.734375,-63.96484375,0.0
97309.516909625,81.0546875,-40.0390625,-57.12890625,-49.8046875,0.0
97309.515666958,104.4921875,-36.1328125,-55.6640625,-8.30078125,0.0
97309.519573208,-139.16015625,-35.15625,-58.10546875,-5.859375,0.0
97309.523479458,-228.515625,-37.59765625,-61.03515625,-33.69140625,0.0
97309.527385708,41.015625,-37.59765625,-58.59375,-48.828125,0.0
97309.531291958,141.6015625,-33.203125,-55.17578125,-23.92578125,0.0
97309.535198208,-41.015625,-34.66796875,-52.734375,-11.23046875,0.0
97309.539104458,-233.3984375,-40.52734375,-57.12890625,-29.296875,0.0
97309.543010708,-15.13671875,-39.0625,-56.640625,-46.38671875,0.0
97309.546916958,169.921875,-39.0625,-53.22265625,-31.25,0.0
97309.550823208,51.26953125,-39.0625,-59.5703125,-11.71875,0.0
97309.554729458,-201.66015625,-36.1328125,-57.12890625,-24.90234375,0.0
97309.558635708,-83.984375,-40.52734375,-56.640625,-52.24609375,0.0
97309.560610916,135.7421875,-40.0390625,-59.08203125,-41.50390625,0.0
97309.564517166,88.37890625,-40.0390625,-61.5234375,-8.30078125,0.0
97309.568423416,-184.5703125,-42.96875,-61.5234375,-7.32421875,0.0
97309.572329666,-175.29296875,-37.59765625,-53.7109375,-36.1328125,0.0
97309.576235916,75.1953125,-36.1328125,-57.12890625,-32.71484375,0.0
97309.580142166,110.3515625,-38.57421875,-61.03515625,-1.953125,0.0
97309.584048416,-112.3046875,-41.015625,-61.03515625,-9.765625,0.0
97309.587954666,-214.84375,-38.0859375,-62.98828125,-50.78125,0.0
97309.591860916,27.34375,-33.69140625,-66.89453125,-66.89453125,0.0
97309.595767166,126.953125,-31.73828125,-65.91796875,-32.2265625,0.0
97309.599673416,-32.71484375,-37.59765625,-62.98828125,-8.30078125,0.0
97309.603579666,-228.02734375,-44.921875,-65.91796875,-23.4375,0.0
97309.606679625,-44.43359375,-45.41015625,-65.4296875,-42.96875,0.0
97309.610585875,129.8828125,-45.41015625,-61.5234375,-21.97265625,0.0
97309.614492125,49.8046875,-45.8984375,-62.5,-2.9296875,0.0
97309.618398375,-173.828125,-41.015625,-66.89453125,-13.18359375,0.0
97309.622304625,-80.56640625,-32.71484375,-67.3828125,-36.1328125,0.0
97309.626210875,123.046875,-31.73828125,-63.96484375,-41.015625,0.0
97309.630117125,84.9609375,-36.62109375,-67.87109375,-21.97265625,0.0
97309.634023375,-163.57421875,-38.57421875,-67.3828125,-17.08984375,0.0
97309.637929625,-177.24609375,-40.0390625,-61.5234375,-39.0625,0.0
97309.641835875,59.5703125,-37.59765625,-60.05859375,-47.8515625,0.0
97309.645742125,129.39453125,-37.109375,-58.59375,-18.5546875,0.0
97309.649648375,-56.15234375,-39.0625,-61.5234375,-11.71875,0.0
97309.65124475,-213.8671875,-32.71484375,-68.359375,-44.43359375,0.0
97309.655151,4.39453125,-31.25,-66.89453125,-61.03515625,0.0
97309.65905725,138.671875,-35.15625,-61.03515625,-19.53125,0.0
97309.6629635,-13.18359375,-36.1328125,-65.91796875,9.765625,0.0
97309.66686975,-225.5859375,-34.66796875,-77.1484375,-19.53125,0.0
97309.670776,-62.01171875,-29.78515625,-77.1484375,-51.7578125,0.0
97309.67468225,124.0234375,-30.76171875,-71.2890625,-38.0859375,0.0
97309.6785885,67.87109375,-36.1328125,-70.3125,-20.99609375,0.0
97309.68249475,-193.359375,-42.96875,-73.73046875,-24.4140625,0.0
97309.686401,-140.625,-42.96875,-75.1953125,-36.62109375,0.0
97309.69030725,105.46875,-40.0390625,-80.56640625,-42.48046875,0.0
97309.6942135,103.515625,-39.55078125,-81.0546875,-11.71875,0.0
97309.696360708,-144.53125,-39.55078125,-78.61328125,-1.953125,0.0
97309.700266958,-200.1953125,-41.015625,-82.51953125,-29.78515625,0.0
97309.704173208,59.08203125,-38.0859375,-82.51953125,-41.9921875,0.0
97309.708079458,147.4609375,-35.64453125,-83.0078125,-30.2734375,0.0
97309.711985708,-57.12890625,-38.0859375,-83.984375,-13.671875,0.0
97309.715891958,-231.4453125,-43.45703125,-79.58984375,-28.80859375,0.0
97309.719798208,-8.7890625,-42.48046875,-73.2421875,-54.19921875,0.0
97309.723704458,123.53515625,-40.0390625,-70.3125,-31.25,0.0
97309.727610708,-7.32421875,-43.9453125,-76.171875,-13.18359375,0.0
97309.731516958,-222.16796875,-40.52734375,-81.54296875,-23.4375,0.0
97309.735423208,-85.9375,-41.9921875,-81.54296875,-51.26953125,0.0
97309.739329458,111.81640625,-43.45703125,-74.70703125,-42.96875,0.0
97309.738333958,75.68359375,-38.57421875,-75.1953125,-6.34765625,0.0
97309.742240208,-168.45703125,-41.50390625,-85.44921875,-17.08984375,0.0
97309.746146458,-140.625,-39.0625,-84.9609375,-63.96484375,0.0
97309.750052708,97.16796875,-37.109375,-78.125,-62.5,0.0
97309.753958958,125.0,-35.64453125,-73.2421875,-23.92578125,0.0
97309.757865208,-97.16796875,-37.109375,-77.63671875,-4.8828125,0.0
97309.761771458,-186.03515625,-41.015625,-79.58984375,-30.2734375,0.0
97309.765677708,51.26953125,-37.59765625,-75.1953125,-58.59375,0.0
97309.769583958,138.18359375,-37.109375,-75.68359375,-29.78515625,0.0
97309.773490208,-26.3671875,-43.45703125,-76.66015625,-10.25390625,0.0
97309.777396458,-221.6796875,-45.8984375,-70.3125,-24.90234375,0.0
97309.781302708,-41.015625,-46.38671875,-65.91796875,-40.52734375,0.0
97309.804116916,124.0234375,-45.41015625,-67.3828125,-20.99609375,0.0
97309.808023166,36.62109375,-41.9921875,-66.40625,13.671875,0.0
97309.811929416,-209.47265625,-39.0625,-61.5234375,-7.8125,0.0
97309.815835666,-104.4921875,-37.109375,-57.6171875,-51.7578125,0.0
97309.819741916,127.44140625,-40.0390625,-63.96484375,-43.45703125,0.0
97309.823648166,97.65625,-41.9921875,-74.70703125,-30.76171875,0.0
97309.827554416,-142.08984375,-38.0859375,-70.80078125,-36.1328125,0.0
97309.831460666,-144.53125,-36.1328125,-64.453125,-52.734375,0.0
97309.835366916,93.26171875,-42.96875,-64.453125,-55.17578125,0.0
97309.839273166,146.97265625,-47.36328125,-60.546875,-27.83203125,0.0
97309.843179416,-77.63671875,-42.96875,-57.6171875,-6.8359375,0.0
97309.847085666,-223.6328125,-35.15625,-56.15234375,-20.5078125,0.0
97309.8514145,20.5078125,-28.80859375,-52.734375,-34.1796875,0.0
97309.85532075,158.69140625,-24.90234375,-56.640625,-10.25390625,0.0
97309.859227,14.6484375,-24.90234375,-62.5,-0.9765625,0.0
97309.86313325,-198.2421875,-24.4140625,-57.6171875,-17.08984375,0.0
97309.8670395,-23.92578125,-27.83203125,-55.17578125,-47.36328125,0.0
97309.87094575,153.3203125,-31.73828125,-57.6171875,-44.43359375,0.0
97309.874852,56.640625,-35.64453125,-60.546875,-12.6953125,0.0
97309.87875825,-188.96484375,-43.45703125,-67.3828125,-11.23046875,0.0
97309.8826645,-97.65625,-42.48046875,-63.96484375,-37.109375,0.0
97309.88657075,126.953125,-35.15625,-59.08203125,-35.15625,0.0
97309.890477,111.81640625,-36.62109375,-55.17578125,-5.37109375,0.0
97309.89438325,-130.37109375,-40.0390625,-51.7578125,-5.859375,0.0
97309.914826208,-169.921875,-33.203125,-48.33984375,-40.0390625,0.0
97309.900944,83.0078125,-29.296875,-43.45703125,-47.8515625,0.0
97309.90485025,152.34375,-34.1796875,-44.43359375,-22.4609375,0.0
97309.9087565,-53.22265625,-37.59765625,-46.38671875,-12.6953125,0.0
97309.91266275,-208.0078125,-41.015625,-46.875,-26.85546875,0.0
97309.916569,12.20703125,-40.52734375,-46.38671875,-44.43359375,0.0
97309.92047525,127.44140625,-36.62109375,-40.0390625,-7.8125,0.0
97309.9243815,-15.625,-36.62109375,-39.55078125,20.01953125,0.0
97309.92828775,-237.79296875,-40.52734375,-46.38671875,-26.3671875,0.0
97309.932194,-96.6796875,-41.015625,-40.52734375,-59.08203125,0.0
97309.93610025,102.5390625,-37.109375,-34.1796875,-49.8046875,0.0
97309.9400065,68.359375,-37.109375,-29.296875,-24.90234375,0.0
97309.945025375,-163.0859375,-35.15625,-24.4140625,-16.11328125,0.0
97309.948931625,-132.8125,-34.66796875,-29.296875,-38.0859375,0.0
97309.952837875,88.8671875,-31.73828125,-29.78515625,-34.66796875,0.0
97309.956744125,116.69921875,-28.80859375,-27.83203125,-3.41796875,0.0
97309.960650375,-118.65234375,-31.73828125,-31.73828125,0.9765625,0.0
97309.964556625,-201.66015625,-32.71484375,-26.85546875,-37.59765625,0.0
97309.968462875,37.109375,-31.25,-18.5546875,-51.7578125,0.0
97309.972369125,125.9765625,-31.73828125,-22.94921875,-23.92578125,0.0
97309.976275375,-48.33984375,-29.78515625,-24.90234375,-17.08984375,0.0
97309.980181625,-226.5625,-23.92578125,-20.01953125,-43.45703125,0.0
97309.984087875,-3.90625,-26.3671875,-24.4140625,-52.734375,0.0
97309.987994125,169.921875,-29.78515625,-29.78515625,-21.97265625,0.0
97309.98801925,52.734375,-29.296875,-28.3203125,-7.32421875,0.0
97309.9919255,-192.3828125,-30.2734375,-30.76171875,-11.23046875,0.0
97309.99583175,-66.40625,-24.90234375,-21.484375,-37.59765625,0.0
97309.999738,141.11328125,-26.85546875,-17.08984375,-49.31640625,0.0
97310.00364425,102.05078125,-31.73828125,-25.390625,-18.5546875,0.0
97310.0075505,-153.80859375,-34.66796875,-32.71484375,-1.953125,0.0
97310.01145675,-150.87890625,-34.66796875,-30.2734375,-32.2265625,0.0
97310.015363,87.40234375,-25.390625,-23.4375,-41.9921875,0.0
97310.01926925,135.7421875,-20.99609375,-28.80859375,-19.53125,0.0
97310.0231755,-91.796875,-26.85546875,-34.66796875,-15.625,0.0
97310.02708175,-218.75,-31.25,-35.64453125,-42.48046875,0.0
97310.030988,31.25,-33.69140625,-36.62109375,-54.19921875,0.0
97310.030142041,140.13671875,-35.64453125,-36.1328125,-19.53125,0.0
97310.034048291,-20.99609375,-39.0625,-36.62109375,-7.8125,0.0
97310.037954541,-209.47265625,-41.9921875,-39.0625,-28.3203125,0.0
97310.041860791,-26.3671875,-41.50390625,-48.33984375,-45.41015625,0.0
97310.045767041,150.87890625,-37.109375,-57.12890625,-29.296875,0.0
97310.049673291,52.734375,-30.2734375,-53.7109375,-6.8359375,0.0
97310.053579541,-208.0078125,-32.71484375,-55.17578125,-24.90234375,0.0
97310.057485791,-112.79296875,-33.69140625,-53.7109375,-59.08203125,0.0
97310.061392041,103.02734375,-29.296875,-48.33984375,-41.9921875,0.0
97310.065298291,72.265625,-33.69140625,-47.36328125,-17.08984375,0.0
97310.069204541,-165.52734375,-39.55078125,-48.828125,-22.94921875,0.0
97310.073110791,-172.8515625,-34.66796875,-52.734375,-43.45703125,0.0
97310.077433791,67.87109375,-32.2265625,-49.31640625,-46.38671875,0.0
97310.081340041,118.65234375,-34.66796875,-48.828125,-19.04296875,0.0
97310.085246291,-82.51953125,-36.1328125,-55.17578125,-11.71875,0.0
97310.089152541,-224.12109375,-34.66796875,-55.6640625,-38.57421875,0.0
97310.093058791,16.6015625,-29.78515625,-51.26953125,-41.50390625,0.0
97310.096965041,141.11328125,-26.85546875,-51.26953125,-10.25390625,0.0
97310.100871291,-1.953125,-28.80859375,-56.640625,-12.6953125,0.0
97310.104777541,-197.75390625,-35.15625,-57.12890625,-40.52734375,0.0
97310.108683791,-41.9921875,-37.59765625,-55.17578125,-62.01171875,0.0
97310.112590041,124.51171875,-39.55078125,-51.7578125,-50.78125,0.0
97310.116496291,61.03515625,-41.9921875,-52.24609375,-20.01953125,0.0
97310.120402541,-179.6875,-33.69140625,-56.640625,-11.23046875,0.0
97310.119935708,-124.51171875,-27.83203125,-57.6171875,-42.48046875,0.0
97310.123841958,96.6796875,-33.203125,-61.03515625,-60.05859375,0.0
97310.127748208,94.23828125,-32.2265625,-54.6875,-26.85546875,0.0
97310.131654458,-147.4609375,-31.73828125,-51.26953125,-8.30078125,0.0
97310.135560708,-205.078125,-31.25,-49.8046875,-36.1328125,0.0
97310.139466958,42.96875,-35.64453125,-45.8984375,-53.7109375,0.0
97310.143373208,121.09375,-37.59765625,-45.8984375,-26.3671875,0.0
97310.147279458,-70.80078125,-36.1328125,-47.36328125,-2.44140625,0.0
97310.151185708,-235.83984375,-41.50390625,-56.640625,-17.578125,0.0
97310.155091958,-6.8359375,-39.55078125,-59.08203125,-40.0390625,0.0
97310.158998208,146.97265625,-29.296875,-46.875,-25.390625,0.0
97310.162904458,26.85546875,-26.3671875,-41.9921875,-12.6953125,0.0
97310.167119625,-202.63671875,-32.71484375,-46.875,-27.83203125,0.0
97310.171025875,-68.359375,-36.62109375,-47.36328125,-52.734375,0.0
97310.174932125,127.9296875,-31.73828125,-47.36328125,-41.9921875,0.0
97310.178838375,68.359375,-26.3671875,-55.6640625,-0.48828125,0.0
97310.182744625,-154.78515625,-30.2734375,-52.734375,5.37109375,0.0
97310.186650875,-114.2578125,-32.2265625,-48.33984375,-40.0390625,0.0
97310.190557125,99.12109375,-26.85546875,-54.19921875,-63.96484375,0.0
97310.194463375,125.0,-26.3671875,-50.78125,-21.97265625,0.0
97310.198369625,-96.19140625,-32.2265625,-42.96875,5.859375,0.0
97310.202275875,-183.10546875,-32.2265625,-37.109375,-38.0859375,0.0
97310.206182125,54.6875,-26.3671875,-38.57421875,-66.40625,0.0
97310.210088375,166.9921875,-20.99609375,-39.55078125,-25.390625,0.0
97310.214717291,-17.08984375,-22.94921875,-41.015625,-1.953125,0.0
97310.218623541,-240.72265625,-28.3203125,-49.8046875,-29.296875,0.0
97310.222529791,-47.36328125,-25.87890625,-47.8515625,-37.109375,0.0
97310.226436041,115.72265625,-30.2734375,-46.875,-15.13671875,0.0
97310.230342291,28.3203125,-33.203125,-48.33984375,5.37109375,0.0
97310.234248541,-196.2890625,-22.94921875,-43.9453125,1.46484375,0.0
97310.238154791,-95.703125,-24.90234375,-43.45703125,-30.2734375,0.0
97310.242061041,111.81640625,-37.59765625,-42.96875,-24.90234375,0.0
97310.245967291,81.54296875,-39.55078125,-46.875,-4.39453125,0.0
97310.249873541,-160.15625,-33.203125,-50.29296875,-12.20703125,0.0
97310.253779791,-166.50390625,-35.15625,-51.7578125,-43.9453125,0.0
97310.257686041,70.80078125,-40.0390625,-57.12890625,-45.41015625,0.0
97310.303537416,126.46484375,-40.0390625,-59.08203125,-9.765625,0.0
97310.289507,-89.84375,-35.15625,-59.5703125,-19.04296875,0.0
97310.29341325,-205.078125,-34.1796875,-55.6640625,-56.15234375,0.0
97310.2973195,46.38671875,-40.52734375,-56.640625,-64.453125,0.0
97310.30122575,158.203125,-41.015625,-59.08203125,-31.73828125,0.0
97310.305132,11.71875,-34.66796875,-57.12890625,-10.25390625,0.0
97310.30903825,-212.40234375,-35.64453125,-59.5703125,-31.25,0.0
97310.3129445,-57.6171875,-38.57421875,-57.6171875,-64.453125,0.0
97310.31685075,129.8828125,-35.15625,-58.59375,-47.8515625,0.0
97310.320757,41.9921875,-31.25,-57.6171875,-10.25390625,0.0
97310.32466325,-211.9140625,-33.203125,-56.640625,-8.7890625,0.0
97310.3285695,-136.23046875,-38.0859375,-61.5234375,-39.0625,0.0
97310.349936041,95.703125,-36.1328125,-58.10546875,-35.15625,0.0
97310.336017125,96.19140625,-37.109375,-54.19921875,-2.9296875,0.0
97310.339923375,-149.90234375,-39.55078125,-54.19921875,7.32421875,0.0
97310.343829625,-189.94140625,-34.66796875,-53.7109375,-16.6015625,0.0
97310.347735875,58.59375,-29.296875,-50.78125,-26.3671875,0.0
97310.351642125,136.71875,-24.90234375,-51.26953125,-0.48828125,0.0
97310.355548375,-58.59375,-31.25,-59.5703125,7.32421875,0.0
97310.359454625,-206.0546875,-35.64453125,-61.5234375,-25.390625,0.0
97310.363360875,23.4375,-32.71484375,-62.5,-58.10546875,0.0
97310.367267125,140.13671875,-31.25,-66.40625,-33.69140625,0.0
97310.371173375,8.30078125,-29.78515625,-62.98828125,-8.30078125,0.0
97310.375079625,-222.16796875,-34.66796875,-61.03515625,-20.5078125,0.0
97310.395385125,-92.7734375,-35.15625,-64.94140625,-45.41015625,0.0
97310.381302,106.93359375,-27.34375,-67.3828125,-30.76171875,0.0
97310.38520825,54.19921875,-30.76171875,-67.3828125,-5.859375,0.0
97310.3891145,-179.19921875,-41.50390625,-68.359375,-24.90234375,0.0
97310.39302075,-137.20703125,-42.48046875,-62.01171875,-53.22265625,0.0
97310.396927,81.54296875,-39.55078125,-55.6640625,-41.50390625,0.0
97310.40083325,98.14453125,-42.48046875,-61.5234375,-17.08984375,0.0
97310.4047395,-127.44140625,-40.52734375,-64.94140625,-15.625,0.0
97310.40864575,-198.73046875,-36.1328125,-61.5234375,-41.015625,0.0
97310.412552,29.78515625,-36.1328125,-63.4765625,-53.7109375,0.0
97310.41645825,115.234375,-34.66796875,-68.84765625,-28.80859375,0.0
97310.4203645,-49.8046875,-37.109375,-71.2890625,-24.90234375,0.0
97310.425152,-222.65625,-36.62109375,-67.3828125,-49.31640625,0.0
97310.42905825,-19.53125,-31.25,-62.98828125,-63.4765625,0.0
97310.4329645,127.44140625,-29.78515625,-63.96484375,-42.96875,0.0
97310.43687075,19.53125,-33.69140625,-64.453125,-12.20703125,0.0
97310.440777,-200.1953125,-37.109375,-65.4296875,-13.18359375,0.0
97310.44468325,-77.1484375,-32.2265625,-68.359375,-42.48046875,0.0
97310.4485895,120.60546875,-31.73828125,-75.68359375,-42.96875,0.0
97310.45249575,87.40234375,-38.0859375,-81.54296875,-22.4609375,0.0
97310.456402,-158.203125,-41.50390625,-81.54296875,-12.6953125,0.0
97310.46030825,-160.64453125,-38.0859375,-78.61328125,-24.4140625,0.0
97310.4642145,84.47265625,-35.64453125,-77.63671875,-45.8984375,0.0
97310.46812075,131.34765625,-38.57421875,-78.61328125,-29.78515625,0.0
97310.445745416,-91.30859375,-38.57421875,-78.61328125,-10.7421875,0.0
97310.449651666,-193.84765625,-34.66796875,-75.68359375,-31.73828125,0.0
97310.453557916,48.828125,-38.0859375,-74.70703125,-52.24609375,0.0
97310.457464166,146.97265625,-42.48046875,-79.1015625,-30.76171875,0.0
97310.461370416,-22.94921875,-40.52734375,-74.70703125,-6.34765625,0.0
97310.465276666,-227.05078125,-38.0859375,-79.1015625,-25.390625,0.0
97310.469182916,-29.78515625,-40.0390625,-83.984375,-48.828125,0.0
97310.473089166,159.66796875,-43.9453125,-79.1015625,-22.4609375,0.0
97310.476995416,57.6171875,-42.96875,-78.61328125,1.46484375,0.0
97310.480901666,-208.49609375,-39.0625,-76.66015625,-20.5078125,0.0
97310.484807916,-135.25390625,-34.1796875,-73.73046875,-46.875,0.0
97310.488714166,88.37890625,-31.25,-75.1953125,-38.0859375,0.0
97310.511648666,88.8671875,-34.1796875,-82.51953125,-15.625,0.0
97310.515554916,-149.4140625,-40.0390625,-64.453125,-13.18359375,0.0
97310.519461166,-176.7578125,-37.109375,-43.45703125,-41.50390625,0.0
97310.523367416,89.35546875,-29.78515625,-48.828125,-44.43359375,0.0
97310.527273666,113.28125,-30.2734375,-52.24609375,-13.18359375,0.0
97310.531179916,-127.44140625,-35.64453125,-56.15234375,-5.37109375,0.0
97310.535086166,-208.0078125,-39.0625,-54.19921875,-24.90234375,0.0
97310.538992416,29.296875,-38.57421875,-56.640625,-33.203125,0.0
97310.542898666,136.71875,-35.64453125,-66.40625,-6.8359375,0.0
97310.546804916,-6.34765625,-35.64453125,-68.84765625,-8.30078125,0.0
97310.550711166,-217.7734375,-36.1328125,-73.2421875,-29.78515625,0.0
97310.554617416,-59.08203125,-32.71484375,-77.1484375,-41.9921875,0.0
97310.57685325,128.90625,-32.2265625,-79.58984375,-29.78515625,0.0
97310.561934125,58.10546875,-38.0859375,-80.56640625,-1.46484375,0.0
97310.565840375,-193.359375,-40.52734375,-77.1484375,0.9765625,0.0
97310.569746625,-147.4609375,-42.96875,-75.1953125,-30.2734375,0.0
97310.573652875,62.98828125,-47.8515625,-75.1953125,-25.390625,0.0
97310.577559125,82.51953125,-47.36328125,-72.75390625,7.32421875,0.0
97310.581465375,-134.765625,-48.828125,-68.84765625,0.9765625,0.0
97310.585371625,-190.4296875,-46.38671875,-69.3359375,-41.015625,0.0
97310.589277875,72.265625,-38.0859375,-68.84765625,-45.8984375,0.0
97310.593184125,167.96875,-30.76171875,-66.40625,-11.23046875,0.0
97310.597090375,-36.1328125,-32.2265625,-69.82421875,-8.30078125,0.0
97310.600996625,-208.0078125,-40.52734375,-74.70703125,-36.62109375,0.0
97310.578657041,12.20703125,-40.52734375,-73.2421875,-48.33984375,0.0
97310.582563291,147.94921875,-34.66796875,-64.453125,-19.04296875,0.0
97310.586469541,18.06640625,-40.0390625,-66.40625,4.39453125,0.0
97310.590375791,-203.125,-46.38671875,-69.82421875,-11.23046875,0.0
97310.594282041,-55.17578125,-41.015625,-64.94140625,-48.828125,0.0
97310.598188291,145.99609375,-35.15625,-64.453125,-46.38671875,0.0
97310.602094541,80.078125,-41.50390625,-70.3125,-12.20703125,0.0
97310.606000791,-177.734375,-37.109375,-67.87109375,-4.8828125,0.0
97310.609907041,-136.71875,-31.73828125,-64.453125,-31.73828125,0.0
97310.613813291,95.703125,-32.71484375,-64.94140625,-23.92578125,0.0
97310.617719541,118.1640625,-29.296875,-64.453125,6.8359375,0.0
97310.621625791,-87.40234375,-34.1796875,-65.4296875,0.9765625,0.0
97310.623830208,-185.546875,-40.52734375,-73.73046875,-34.1796875,0.0
97310.627736458,47.8515625,-39.0625,-70.80078125,-50.78125,0.0
97310.631642708,155.76171875,-36.62109375,-66.89453125,-29.296875,0.0
97310.635548958,-16.11328125,-33.69140625,-67.87109375,-13.671875,0.0
97310.639455208,-206.54296875,-30.2734375,-67.87109375,-25.390625,0.0
97310.643361458,-20.01953125,-34.1796875,-70.80078125,-44.43359375,0.0
97310.647267708,121.09375,-30.76171875,-61.03515625,-25.87890625,0.0
97310.651173958,12.6953125,-30.2734375,-52.734375,-6.34765625,0.0
97310.655080208,-211.9140625,-34.1796875,-53.7109375,-20.99609375,0.0
97310.658986458,-98.14453125,-24.90234375,-53.22265625,-41.9921875,0.0
97310.662892708,126.46484375,-21.97265625,-51.7578125,-32.71484375,0.0
97310.666798958,113.76953125,-24.4140625,-49.8046875,5.859375,0.0
97310.6949495,-131.34765625,-21.484375,-46.875,20.01953125,0.0
97310.69885575,-144.53125,-22.4609375,-40.0390625,-14.16015625,0.0
97310.702762,97.65625,-17.578125,-36.62109375,-22.4609375,0.0
97310.70666825,147.4609375,-19.53125,-34.66796875,7.8125,0.0
97310.7105745,-59.5703125,-24.90234375,-27.83203125,7.8125,0.0
97310.71448075,-184.5703125,-19.53125,-24.4140625,-21.97265625,0.0
97310.718387,40.0390625,-18.06640625,-20.99609375,-32.71484375,0.0
97310.72229325,148.4375,-24.4140625,-16.6015625,-23.92578125,0.0
97310.7261995,-11.23046875,-29.78515625,-19.53125,-7.8125,0.0
97310.73010575,-229.00390625,-27.83203125,-21.484375,-21.484375,0.0
97310.734012,-70.3125,-26.85546875,-16.6015625,-51.26953125,0.0
97310.73791825,102.5390625,-30.2734375,-13.671875,-28.3203125,0.0
97310.743290833,18.5546875,-31.25,-17.08984375,-1.953125,0.0
97310.747197083,-219.23828125,-30.2734375,-21.484375,-22.94921875,0.0
97310.751103333,-139.6484375,-34.66796875,-19.04296875,-60.546875,0.0
97310.755009583,98.14453125,-37.59765625,-13.671875,-51.7578125,0.0
97310.758915833,107.91015625,-38.57421875,-14.6484375,-16.6015625,0.0
97310.762822083,-121.58203125,-34.66796875,-15.625,-13.671875,0.0
97310.766728333,-154.78515625,-30.2734375,-15.625,-38.57421875,0.0
97310.770634583,80.078125,-39.55078125,-23.4375,-57.12890625,0.0
97310.774540833,132.32421875,-41.50390625,-23.4375,-26.3671875,0.0
97310.778447083,-88.37890625,-31.25,-17.578125,1.953125,0.0
97310.782353333,-245.1171875,-33.69140625,-16.6015625,-25.87890625,0.0
97310.786259583,-5.859375,-37.59765625,-19.04296875,-43.9453125,0.0
97310.792267166,140.625,-32.71484375,-20.01953125,-18.06640625,0.0
97310.796173416,12.20703125,-29.78515625,-18.5546875,3.41796875,0.0
97310.800079666,-215.33203125,-33.203125,-24.4140625,-13.18359375,0.0
97310.803985916,-61.03515625,-30.2734375,-23.92578125,-52.24609375,0.0
97310.807892166,134.765625,-27.34375,-20.01953125,-51.26953125,0.0
97310.811798416,81.0546875,-32.71484375,-24.4140625,-29.296875,0.0
97310.815704666,-170.8984375,-41.50390625,-28.80859375,-23.4375,0.0
97310.819610916,-140.625,-39.55078125,-29.296875,-49.31640625,0.0
97310.823517166,88.37890625,-31.25,-26.3671875,-44.921875,0.0
97310.827423416,103.515625,-30.76171875,-34.66796875,-14.6484375,0.0
97310.831329666,-122.55859375,-30.2734375,-42.48046875,-15.625,0.0
97310.835235916,-201.171875,-36.1328125,-33.69140625,-39.55078125,0.0
97310.859556375,29.78515625,-38.0859375,-29.296875,-45.8984375,0.0
97310.842274291,119.140625,-30.2734375,-36.62109375,-16.11328125,0.0
97310.846180541,-43.45703125,-29.78515625,-39.0625,-12.20703125,0.0
97310.850086791,-213.8671875,-28.3203125,-36.62109375,-34.66796875,0.0
97310.853993041,-12.20703125,-24.90234375,-32.71484375,-47.8515625,0.0
97310.857899291,124.51171875,-25.390625,-38.0859375,-36.62109375,0.0
97310.861805541,10.25390625,-23.4375,-47.8515625,-15.625,0.0
97310.865711791,-211.42578125,-24.4140625,-46.875,-20.99609375,0.0
97310.869618041,-98.14453125,-26.3671875,-46.875,-46.875,0.0
97310.873524291,124.51171875,-24.90234375,-44.43359375,-41.015625,0.0
97310.877430541,94.7265625,-23.92578125,-41.9921875,-6.34765625,0.0
97310.881336791,-177.734375,-28.80859375,-40.52734375,0.48828125,0.0
97310.885188,-183.10546875,-32.2265625,-40.0390625,-31.73828125,0.0
97310.88909425,75.1953125,-27.83203125,-44.43359375,-42.96875,0.0
97310.8930005,137.6953125,-23.4375,-49.8046875,-18.06640625,0.0
97310.89690675,-97.65625,-20.99609375,-55.17578125,-3.90625,0.0
97310.900813,-215.8203125,-22.94921875,-55.6640625,-29.296875,0.0
97310.90471925,27.34375,-23.92578125,-52.734375,-43.9453125,0.0
97310.9086255,131.34765625,-22.4609375,-53.22265625,-14.16015625,0.0
97310.91253175,-32.71484375,-23.92578125,-57.12890625,8.7890625,0.0
97310.916438,-239.74609375,-21.97265625,-55.6640625,-5.859375,0.0
97310.92034425,-49.8046875,-20.01953125,-55.17578125,-44.43359375,0.0
97310.9242505,141.11328125,-26.3671875,-56.15234375,-34.66796875,0.0
97310.92815675,62.98828125,-29.296875,-55.17578125,-9.765625,0.0
97310.949835666,-178.22265625,-27.34375,-53.7109375,-21.484375,0.0
97310.932486791,-94.7265625,-27.34375,-52.734375,-48.33984375,0.0
97310.936393041,112.79296875,-33.69140625,-52.24609375,-40.0390625,0.0
97310.940299291,86.9140625,-33.69140625,-52.24609375,-2.9296875,0.0
97310.944205541,-151.3671875,-28.80859375,-54.19921875,-2.44140625,0.0
