lsl_timestamp,TP9,AF7,AF8,TP10,Right AUX
7854.32064375,-12.20703125,-0.48828125,-7.32421875,-0.9765625,0.0
7854.32455,-2.44140625,0.9765625,-3.90625,3.41796875,0.0
7854.32845625,-6.34765625,6.34765625,-32.2265625,0.9765625,0.0
7854.3323625,-13.671875,-3.41796875,-41.015625,-1.46484375,0.0
7854.33626875,-2.44140625,-9.765625,-40.0390625,13.18359375,0.0
7854.340175,-7.8125,-3.41796875,-43.9453125,14.6484375,0.0
7854.34408125,-6.8359375,-1.953125,18.5546875,-10.25390625,0.0
7854.3479875,4.8828125,0.48828125,33.203125,-4.8828125,0.0
7854.35189375,11.23046875,-2.9296875,30.2734375,13.671875,0.0
7854.3558,7.8125,-3.41796875,25.390625,8.7890625,0.0
7854.35970625,2.44140625,-2.44140625,-2.9296875,2.44140625,0.0
7854.3636125,9.27734375,-11.23046875,0.48828125,0.48828125,0.0
7854.384376,10.25390625,-1.46484375,7.8125,2.9296875,0.0
7854.38828225,-3.41796875,8.30078125,-11.71875,7.8125,0.0
7854.378243708,-16.11328125,-4.39453125,-21.484375,12.6953125,0.0
7854.382149958,-18.5546875,0.9765625,-19.04296875,6.8359375,0.0
7854.386056208,-24.4140625,8.7890625,-18.06640625,3.41796875,0.0
7854.389962458,-16.11328125,4.39453125,-32.71484375,14.6484375,0.0
7854.393868708,-1.953125,8.7890625,-38.57421875,18.5546875,0.0
7854.397774958,-15.625,6.8359375,-31.73828125,-6.8359375,0.0
7854.401681208,-36.62109375,-2.9296875,6.34765625,-28.3203125,0.0
7854.405587458,-31.73828125,2.44140625,-27.34375,-20.5078125,0.0
7854.409493708,-31.25,4.39453125,-57.12890625,-19.04296875,0.0
7854.413399958,-60.546875,2.9296875,-29.78515625,-34.1796875,0.0
7854.433446416,-62.98828125,5.37109375,-18.5546875,-49.8046875,0.0
7854.418514916,-54.19921875,-0.9765625,-51.26953125,-53.7109375,0.0
7854.422421166,-55.6640625,-0.9765625,-56.640625,-50.78125,0.0
7854.426327416,-54.6875,-0.48828125,-17.578125,-45.41015625,0.0
7854.430233666,-47.36328125,1.953125,-33.69140625,-41.015625,0.0
7854.434139916,-43.45703125,7.8125,-42.96875,-44.43359375,0.0
7854.438046166,-42.48046875,5.859375,-26.3671875,-21.97265625,0.0
7854.441952416,-29.296875,4.39453125,-2.9296875,-10.7421875,0.0
7854.445858666,-23.92578125,5.37109375,1.953125,-25.87890625,0.0
7854.449764916,-25.390625,4.39453125,-42.48046875,-17.08984375,0.0
7854.453671166,-26.3671875,-9.765625,-60.546875,-6.34765625,0.0
7854.457577416,-37.59765625,-15.13671875,-51.26953125,-20.01953125,0.0
7854.462081416,-41.50390625,-3.90625,-54.19921875,-31.73828125,0.0
7854.465987666,-39.55078125,-9.765625,-71.2890625,-32.71484375,0.0
7854.469893916,-38.57421875,-19.04296875,-85.44921875,-29.296875,0.0
7854.473800166,-34.1796875,-9.27734375,-70.80078125,-24.4140625,0.0
7854.477706416,-27.83203125,-10.7421875,-72.75390625,-21.484375,0.0
7854.481612666,-27.34375,-20.99609375,-98.6328125,-29.78515625,0.0
7854.485518916,-32.2265625,-20.5078125,-85.9375,-27.83203125,0.0
7854.489425166,-38.57421875,-21.97265625,-42.48046875,-21.97265625,0.0
7854.493331416,-43.45703125,-23.92578125,-45.41015625,-23.4375,0.0
7854.497237666,-38.0859375,-23.92578125,-78.125,-19.04296875,0.0
7854.501143916,-32.2265625,-31.73828125,-79.58984375,-19.53125,0.0
7854.505050166,-35.15625,-33.203125,-65.91796875,-12.6953125,0.0
7854.5045295,-45.41015625,-26.85546875,-65.91796875,-5.859375,0.0
7854.50843575,-42.48046875,-26.85546875,-70.3125,-18.06640625,0.0
7854.512342,-34.66796875,-29.78515625,-62.01171875,-28.80859375,0.0
7854.51624825,-41.50390625,-38.57421875,-68.84765625,-49.31640625,0.0
7854.5201545,-47.8515625,-41.9921875,-87.890625,-69.82421875,0.0
7854.52406075,-61.5234375,-37.59765625,-102.5390625,-59.08203125,0.0
7854.527967,-61.5234375,-35.64453125,-61.03515625,-41.9921875,0.0
7854.53187325,-39.0625,-29.78515625,-61.03515625,-24.90234375,0.0
7854.5357795,-52.24609375,-25.87890625,-92.28515625,-22.94921875,0.0
7854.53968575,-64.94140625,-21.484375,-71.2890625,-30.76171875,0.0
7854.543592,-51.26953125,-23.92578125,-49.31640625,-35.15625,0.0
7854.54749825,-35.64453125,-32.71484375,-68.84765625,-51.26953125,0.0
7854.57172675,-40.0390625,-34.66796875,-82.03125,-59.08203125,0.0
7854.575633,-36.62109375,-32.71484375,-53.22265625,-54.19921875,0.0
7854.57953925,-34.1796875,-30.2734375,-34.66796875,-47.36328125,0.0
7854.5834455,-57.12890625,-30.2734375,-55.17578125,-33.69140625,0.0
7854.58735175,-68.359375,-22.94921875,-95.21484375,-28.80859375,0.0
7854.591258,-48.33984375,-15.625,-82.03125,-30.2734375,0.0
7854.59516425,-29.78515625,-10.25390625,-50.29296875,-33.69140625,0.0
7854.5990705,-29.296875,-8.30078125,-40.52734375,-37.59765625,0.0
7854.60297675,-32.2265625,-14.16015625,-72.265625,-35.64453125,0.0
7854.606883,-36.1328125,-19.53125,-78.125,-22.94921875,0.0
7854.61078925,-41.50390625,-27.83203125,-21.484375,-22.4609375,0.0
7854.6146955,-42.48046875,-31.25,-39.0625,-26.85546875,0.0
7854.593463166,-33.69140625,-16.6015625,-64.453125,-19.53125,0.0
7854.597369416,-32.2265625,-5.37109375,-54.6875,-10.7421875,0.0
7854.601275666,-29.296875,-2.9296875,-48.33984375,-10.7421875,0.0
7854.605181916,-29.78515625,-2.9296875,-67.3828125,-5.37109375,0.0
7854.609088166,-37.109375,-13.18359375,-69.82421875,-10.25390625,0.0
7854.612994416,-31.25,-15.13671875,-71.2890625,-15.625,0.0
7854.616900666,-17.578125,-6.34765625,-39.0625,-23.92578125,0.0
7854.620806916,-13.18359375,-15.13671875,-40.52734375,-36.62109375,0.0
7854.624713166,-20.5078125,-28.80859375,-87.890625,-23.4375,0.0
7854.628619416,-23.4375,-18.06640625,-59.08203125,-9.765625,0.0
7854.632525666,-23.92578125,-6.34765625,-41.9921875,-17.578125,0.0
7854.636431916,-20.5078125,0.48828125,-67.3828125,-10.7421875,0.0
7854.637358833,-15.13671875,3.90625,-55.17578125,-14.16015625,0.0
7854.641265083,-11.71875,5.37109375,-50.78125,-12.6953125,0.0
7854.645171333,-19.53125,18.06640625,-56.640625,8.30078125,0.0
7854.649077583,-20.01953125,15.625,-64.94140625,20.01953125,0.0
7854.652983833,-16.11328125,8.30078125,-72.265625,3.41796875,0.0
7854.656890083,-17.578125,15.625,-59.5703125,-5.859375,0.0
7854.660796333,-6.34765625,13.671875,-52.734375,20.01953125,0.0
7854.664702583,3.41796875,5.859375,-63.4765625,33.203125,0.0
7854.668608833,20.01953125,8.7890625,-54.19921875,43.9453125,0.0
7854.672515083,24.4140625,4.8828125,-16.6015625,41.50390625,0.0
7854.676421333,20.01953125,3.41796875,-60.546875,41.9921875,0.0
7854.680327583,21.97265625,8.30078125,-63.4765625,46.875,0.0
7854.678217791,30.76171875,1.953125,-37.109375,42.96875,0.0
7854.682124041,28.80859375,0.48828125,-37.59765625,41.50390625,0.0
7854.686030291,20.01953125,6.34765625,-62.98828125,25.87890625,0.0
7854.689936541,24.4140625,9.27734375,-63.96484375,28.3203125,0.0
7854.693842791,23.4375,1.953125,-51.7578125,32.71484375,0.0
7854.697749041,18.5546875,-1.953125,-54.6875,22.94921875,0.0
7854.701655291,26.3671875,7.8125,-53.7109375,28.3203125,0.0
7854.705561541,24.90234375,7.8125,-76.66015625,32.2265625,0.0
7854.709467791,19.04296875,4.39453125,-54.6875,28.3203125,0.0
7854.713374041,12.6953125,5.37109375,-22.94921875,23.4375,0.0
7854.717280291,-1.953125,3.90625,-43.45703125,27.83203125,0.0
7854.721186541,-9.765625,4.39453125,-56.15234375,34.66796875,0.0
7854.724044666,5.859375,-2.44140625,-33.69140625,27.83203125,0.0
7854.727950916,20.99609375,-11.23046875,-40.0390625,18.06640625,0.0
7854.731857166,8.30078125,-6.8359375,-56.640625,16.11328125,0.0
7854.735763416,-3.90625,1.46484375,-71.2890625,14.6484375,0.0
7854.739669666,-9.765625,-0.9765625,-56.640625,4.8828125,0.0
7854.743575916,-13.671875,-4.39453125,-53.7109375,-2.44140625,0.0
7854.747482166,-2.44140625,-4.39453125,-61.5234375,1.953125,0.0
7854.751388416,6.34765625,-6.34765625,-46.38671875,12.6953125,0.0
7854.755294666,-2.9296875,-5.859375,1.46484375,16.6015625,0.0
7854.759200916,-12.20703125,-5.37109375,-15.13671875,8.30078125,0.0
7854.763107166,-10.25390625,-6.8359375,-48.33984375,14.6484375,0.0
7854.767013416,-5.859375,-12.20703125,-53.22265625,19.53125,0.0
7854.769932166,-10.25390625,-14.16015625,-39.0625,10.25390625,0.0
7854.773838416,-1.953125,-6.8359375,-34.1796875,4.39453125,0.0
7854.777744666,5.37109375,-3.90625,-33.69140625,-7.32421875,0.0
7854.781650916,-5.859375,-9.765625,-31.73828125,-13.671875,0.0
7854.785557166,-21.484375,-16.11328125,-63.96484375,-1.46484375,0.0
7854.789463416,-20.5078125,-18.5546875,-47.8515625,3.41796875,0.0
7854.793369666,0.0,-15.13671875,-39.55078125,4.39453125,0.0
7854.797275916,-1.46484375,-10.7421875,-24.90234375,3.90625,0.0
7854.801182166,-18.06640625,-9.765625,-21.484375,-1.953125,0.0
7854.805088416,-13.671875,-8.30078125,-32.71484375,8.7890625,0.0
7854.808994666,-9.27734375,-12.6953125,-5.37109375,6.8359375,0.0
7854.812900916,-9.765625,-18.06640625,-2.9296875,-9.27734375,0.0
7854.83900475,-14.16015625,-20.01953125,-30.76171875,-7.32421875,0.0
7854.842911,6.8359375,-22.4609375,-42.96875,3.90625,0.0
7854.84681725,23.92578125,-23.92578125,-15.625,4.8828125,0.0
7854.8507235,0.0,-19.53125,13.671875,-2.44140625,0.0
7854.85462975,-15.13671875,-18.5546875,-20.5078125,1.46484375,0.0
7854.858536,-17.578125,-20.99609375,-59.5703125,22.4609375,0.0
7854.86244225,-7.32421875,-22.94921875,-13.671875,25.390625,0.0
7854.8663485,8.7890625,-19.04296875,43.9453125,15.625,0.0
7854.87025475,4.39453125,-18.06640625,12.20703125,0.48828125,0.0
7854.874161,-1.953125,-21.484375,-41.015625,-0.48828125,0.0
7854.87806725,-4.8828125,-19.04296875,-8.7890625,1.46484375,0.0
7854.8819735,-0.9765625,-13.671875,19.53125,3.41796875,0.0
7854.887389208,10.25390625,-13.18359375,0.48828125,9.27734375,0.0
7854.891295458,2.44140625,-21.97265625,-29.296875,2.44140625,0.0
7854.895201708,-13.18359375,-28.3203125,-5.859375,-1.46484375,0.0
7854.899107958,-0.48828125,-22.94921875,17.08984375,2.9296875,0.0
7854.903014208,9.765625,-18.5546875,-3.41796875,5.37109375,0.0
7854.906920458,11.23046875,-18.5546875,-27.34375,9.765625,0.0
7854.910826708,-1.953125,-16.11328125,-3.90625,14.6484375,0.0
7854.914732958,-19.04296875,-18.5546875,27.34375,8.7890625,0.0
7854.918639208,-14.6484375,-21.97265625,-2.9296875,9.27734375,0.0
7854.922545458,-12.20703125,-18.06640625,-19.53125,18.06640625,0.0
7854.926451708,-11.71875,-17.08984375,-2.9296875,16.6015625,0.0
7854.930357958,-8.30078125,-20.01953125,0.48828125,3.90625,0.0
7854.932301708,-14.16015625,-20.01953125,-11.23046875,1.953125,0.0
7854.936207958,-18.5546875,-23.4375,-14.16015625,-1.46484375,0.0
7854.940114208,-21.97265625,-27.83203125,-13.671875,-8.7890625,0.0
7854.944020458,-23.92578125,-22.4609375,2.9296875,0.48828125,0.0
7854.947926708,-15.13671875,-17.08984375,31.25,0.0,0.0
7854.951832958,-9.27734375,-19.04296875,82.51953125,-13.671875,0.0
7854.955739208,-18.5546875,-21.484375,88.8671875,-37.109375,0.0
7854.959645458,-27.83203125,-23.92578125,75.68359375,-47.8515625,0.0
7854.963551708,-19.04296875,-26.85546875,60.546875,-40.0390625,0.0
7854.967457958,-30.76171875,-27.83203125,53.7109375,-34.1796875,0.0
7854.971364208,-41.9921875,-28.3203125,60.546875,-28.80859375,0.0
7854.975270458,-43.45703125,-29.78515625,17.578125,-10.7421875,0.0
7854.976724958,-41.9921875,-29.78515625,16.11328125,4.8828125,0.0
7854.980631208,-27.83203125,-30.2734375,25.390625,-6.8359375,0.0
7854.984537458,-27.34375,-26.85546875,8.30078125,-15.13671875,0.0
7854.988443708,-28.80859375,-26.3671875,-15.625,-12.20703125,0.0
7854.992349958,-28.3203125,-29.78515625,-8.30078125,-23.92578125,0.0
7854.996256208,-28.3203125,-33.203125,2.9296875,-35.64453125,0.0
7855.000162458,-21.484375,-32.2265625,14.6484375,-22.94921875,0.0
7855.004068708,-36.62109375,-31.73828125,-11.23046875,-9.765625,0.0
7855.007974958,-29.78515625,-38.57421875,-39.0625,0.48828125,0.0
7855.011881208,-4.8828125,-41.015625,1.953125,4.8828125,0.0
7855.015787458,3.90625,-33.69140625,19.04296875,-6.8359375,0.0
7855.019693708,-10.7421875,-26.3671875,-20.01953125,-9.27734375,0.0
7855.019926708,-36.1328125,-31.25,-16.6015625,-2.44140625,0.0
7855.023832958,-22.4609375,-29.296875,17.578125,-3.41796875,0.0
7855.027739208,-15.13671875,-29.78515625,10.25390625,-5.37109375,0.0
7855.031645458,-23.4375,-38.0859375,-20.5078125,-6.8359375,0.0
7855.035551708,-21.97265625,-39.55078125,-40.52734375,-22.94921875,0.0
7855.039457958,-27.34375,-40.0390625,-23.4375,-36.62109375,0.0
7855.043364208,-36.62109375,-42.48046875,-11.71875,-29.296875,0.0
7855.047270458,-28.80859375,-42.96875,-44.921875,-17.578125,0.0
7855.051176708,-15.625,-33.203125,-42.48046875,1.46484375,0.0
7855.055082958,-19.04296875,-29.78515625,23.4375,-10.7421875,0.0
7855.058989208,-8.30078125,-29.296875,3.41796875,-19.04296875,0.0
7855.062895458,-9.765625,-32.2265625,-22.94921875,-10.25390625,0.0
7855.068263458,-29.78515625,-41.9921875,-34.1796875,-12.6953125,0.0
7855.072169708,-33.203125,-45.41015625,-21.484375,-12.6953125,0.0
7855.076075958,-21.484375,-38.0859375,-1.46484375,-19.04296875,0.0
7855.079982208,-15.625,-31.25,-3.90625,-17.08984375,0.0
7855.083888458,-17.578125,-33.69140625,-22.4609375,-5.37109375,0.0
7855.087794708,-20.01953125,-30.76171875,-23.4375,2.9296875,0.0
7855.091700958,-28.80859375,-28.3203125,5.37109375,-5.859375,0.0
7855.095607208,-31.73828125,-31.73828125,-22.94921875,-0.9765625,0.0
7855.099513458,-22.94921875,-31.73828125,-15.13671875,0.9765625,0.0
7855.103419708,-26.3671875,-29.296875,-8.30078125,-10.7421875,0.0
7855.107325958,-22.4609375,-31.25,-21.97265625,-15.13671875,0.0
7855.111232208,-21.97265625,-37.59765625,-15.13671875,-19.04296875,0.0
7855.117615875,-24.4140625,-36.1328125,-14.16015625,-20.5078125,0.0
7855.121522125,-20.5078125,-33.203125,-29.78515625,-18.5546875,0.0
7855.125428375,-20.99609375,-39.55078125,-20.5078125,-6.8359375,0.0
7855.129334625,-11.23046875,-33.203125,-5.859375,0.9765625,0.0
7855.133240875,-2.44140625,-26.85546875,-5.859375,5.37109375,0.0
7855.137147125,12.20703125,-29.296875,-27.34375,17.08984375,0.0
7855.141053375,-0.48828125,-32.2265625,-28.3203125,8.7890625,0.0
7855.144959625,-23.92578125,-30.76171875,1.953125,-5.37109375,0.0
7855.148865875,-11.71875,-30.2734375,42.96875,-10.25390625,0.0
7855.152772125,-1.46484375,-33.69140625,-5.37109375,-2.9296875,0.0
7855.156678375,7.32421875,-33.69140625,-27.34375,25.390625,0.0
7855.160584625,3.90625,-34.1796875,10.25390625,27.83203125,0.0
7855.15857075,-10.25390625,-36.1328125,19.04296875,25.390625,0.0
7855.162477,-9.27734375,-37.109375,-5.37109375,30.76171875,0.0
7855.16638325,-22.4609375,-41.50390625,-20.99609375,37.59765625,0.0
7855.1702895,-26.85546875,-49.8046875,22.94921875,32.71484375,0.0
7855.17419575,-7.8125,-49.8046875,16.11328125,22.4609375,0.0
7855.178102,-1.953125,-40.52734375,1.953125,26.3671875,0.0
7855.18200825,-18.5546875,-39.0625,-20.01953125,27.34375,0.0
7855.1859145,-29.78515625,-42.96875,12.20703125,35.64453125,0.0
7855.18982075,-23.4375,-41.50390625,50.78125,41.015625,0.0
7855.193727,-8.7890625,-35.15625,12.20703125,36.1328125,0.0
7855.19763325,-3.90625,-28.80859375,-2.9296875,33.203125,0.0
7855.2015395,-4.8828125,-24.4140625,18.06640625,32.2265625,0.0
7855.204916125,5.37109375,-23.4375,31.73828125,27.83203125,0.0
7855.208822375,7.32421875,-28.3203125,21.484375,21.97265625,0.0
7855.212728625,-5.859375,-33.69140625,0.0,20.01953125,0.0
7855.216634875,-15.13671875,-40.52734375,10.7421875,10.7421875,0.0
7855.220541125,-5.859375,-40.52734375,28.80859375,1.46484375,0.0
7855.224447375,0.48828125,-40.0390625,2.44140625,4.8828125,0.0
7855.228353625,-9.27734375,-41.9921875,-9.765625,4.39453125,0.0
7855.232259875,-17.08984375,-44.43359375,17.578125,7.8125,0.0
7855.236166125,-3.90625,-40.0390625,20.01953125,23.92578125,0.0
7855.240072375,-10.25390625,-37.109375,0.0,19.53125,0.0
7855.243978625,-23.4375,-43.9453125,4.8828125,9.27734375,0.0
7855.247884875,-21.484375,-42.48046875,-3.90625,13.18359375,0.0
7855.25133525,-23.4375,-43.45703125,-5.37109375,6.8359375,0.0
7855.2552415,-7.8125,-46.875,1.953125,5.859375,0.0
7855.25914775,-3.41796875,-52.24609375,10.7421875,3.41796875,0.0
7855.263054,-6.8359375,-54.6875,-13.18359375,-5.859375,0.0
7855.26696025,-16.11328125,-46.38671875,-24.90234375,-4.39453125,0.0
7855.2708665,-20.99609375,-42.96875,-39.55078125,-0.48828125,0.0
7855.27477275,-21.484375,-38.0859375,-6.34765625,11.71875,0.0
7855.278679,-19.53125,-37.59765625,14.16015625,6.8359375,0.0
7855.28258525,-30.76171875,-44.921875,-28.80859375,-2.44140625,0.0
7855.2864915,-32.2265625,-46.38671875,0.9765625,-3.41796875,0.0
7855.29039775,-17.578125,-44.43359375,20.5078125,-6.34765625,0.0
7855.294304,-20.01953125,-46.875,-1.46484375,-4.8828125,0.0
7855.325623,-34.66796875,-54.19921875,-33.203125,-16.11328125,0.0
7855.32952925,-36.62109375,-50.78125,-5.859375,-22.4609375,0.0
7855.3334355,-23.4375,-45.8984375,19.53125,-25.87890625,0.0
7855.33734175,-15.13671875,-42.96875,-0.48828125,-30.76171875,0.0
7855.341248,-16.6015625,-39.55078125,-36.62109375,-19.04296875,0.0
7855.34515425,-25.87890625,-39.55078125,-17.08984375,-2.9296875,0.0
7855.3490605,-35.64453125,-42.96875,17.08984375,-1.953125,0.0
7855.35296675,-27.34375,-42.48046875,16.6015625,-2.9296875,0.0
7855.356873,-0.9765625,-40.0390625,-32.2265625,8.7890625,0.0
7855.36077925,7.32421875,-40.52734375,-35.15625,20.01953125,0.0
7855.3646855,-18.5546875,-39.0625,34.66796875,5.37109375,0.0
7855.36859175,-24.90234375,-43.45703125,6.34765625,-3.90625,0.0
7855.3708305,-28.3203125,-46.875,-28.3203125,7.32421875,0.0
7855.37473675,-27.83203125,-49.31640625,-28.80859375,25.390625,0.0
7855.378643,11.23046875,-55.17578125,1.46484375,20.01953125,0.0
7855.38254925,25.87890625,-59.08203125,7.8125,12.20703125,0.0
7855.3864555,17.578125,-51.7578125,-20.01953125,29.78515625,0.0
7855.39036175,15.625,-50.29296875,-31.25,52.24609375,0.0
7855.394268,3.41796875,-55.17578125,4.39453125,55.6640625,0.0
7855.39817425,-6.34765625,-45.41015625,16.6015625,47.8515625,0.0
7855.4020805,-5.859375,-38.57421875,-25.87890625,37.109375,0.0
7855.40598675,-6.8359375,-43.45703125,-6.8359375,25.87890625,0.0
7855.409893,-9.27734375,-49.31640625,20.99609375,21.484375,0.0
7855.41379925,-11.23046875,-47.8515625,3.41796875,11.71875,0.0
7855.393286416,-6.34765625,-48.828125,14.6484375,15.13671875,0.0
7855.397192666,6.34765625,-50.29296875,7.32421875,29.78515625,0.0
7855.401098916,1.46484375,-47.8515625,-13.671875,34.66796875,0.0
7855.405005166,0.9765625,-45.8984375,9.27734375,41.50390625,0.0
7855.408911416,7.8125,-39.0625,8.7890625,38.57421875,0.0
7855.412817666,-23.4375,-36.62109375,-11.23046875,-3.90625,0.0
7855.416723916,-57.6171875,-39.55078125,-26.3671875,-44.921875,0.0
7855.420630166,-58.10546875,-39.55078125,-20.01953125,-61.5234375,0.0
7855.424536416,-58.59375,-38.57421875,7.8125,-62.98828125,0.0
7855.428442666,-67.3828125,-31.25,31.25,-77.63671875,0.0
7855.432348916,-93.26171875,-31.73828125,-11.71875,-109.375,0.0
7855.436255166,-104.98046875,-29.78515625,-22.94921875,-105.46875,0.0
7855.441471583,-103.515625,-20.5078125,1.953125,-102.5390625,0.0
7855.445377833,-111.81640625,-20.99609375,8.30078125,-111.81640625,0.0
7855.449284083,-113.28125,-19.53125,-33.203125,-108.3984375,0.0
7855.453190333,-107.421875,-19.53125,-20.5078125,-114.74609375,0.0
7855.457096583,-90.33203125,-16.11328125,12.20703125,-108.3984375,0.0
7855.461002833,-91.30859375,-8.30078125,-18.06640625,-115.72265625,0.0
7855.464909083,-99.609375,-11.23046875,-32.2265625,-118.65234375,0.0
7855.468815333,-90.8203125,-20.5078125,-51.26953125,-94.7265625,0.0
7855.472721583,-71.2890625,-21.484375,-16.6015625,-91.796875,0.0
7855.476627833,-52.24609375,-24.90234375,4.8828125,-102.5390625,0.0
7855.480534083,-44.921875,-32.71484375,-46.38671875,-93.26171875,0.0
7855.484440333,-43.9453125,-38.0859375,-54.19921875,-71.77734375,0.0
7855.486079583,-37.109375,-35.15625,-19.53125,-62.5,0.0
7855.489985833,-32.2265625,-34.1796875,-23.92578125,-57.12890625,0.0
7855.493892083,-33.203125,-40.0390625,-47.8515625,-41.015625,0.0
7855.497798333,-33.69140625,-36.62109375,-66.40625,-26.85546875,0.0
7855.501704583,-43.45703125,-40.0390625,-47.36328125,-38.0859375,0.0
7855.505610833,-36.1328125,-45.8984375,-38.0859375,-42.96875,0.0
7855.509517083,-20.99609375,-40.0390625,-55.17578125,-27.34375,0.0
7855.513423333,-26.85546875,-35.15625,-59.08203125,-26.85546875,0.0
7855.517329583,-34.1796875,-25.87890625,-15.625,-28.80859375,0.0
7855.521235833,-22.94921875,-21.484375,-27.83203125,-19.53125,0.0
7855.525142083,-24.4140625,-31.25,-48.828125,-12.20703125,0.0
7855.529048333,-35.15625,-39.55078125,-44.921875,-24.4140625,0.0
7855.528989916,-34.66796875,-30.76171875,-42.48046875,-36.1328125,0.0
7855.532896166,-35.15625,-26.3671875,-33.203125,-28.3203125,0.0
7855.536802416,-25.87890625,-25.87890625,-25.87890625,-24.90234375,0.0
7855.540708666,-21.97265625,-28.3203125,-12.20703125,-39.0625,0.0
7855.544614916,-16.6015625,-35.64453125,-44.921875,-38.57421875,0.0
7855.548521166,-19.53125,-36.62109375,-38.57421875,-27.83203125,0.0
7855.552427416,-24.4140625,-32.71484375,-35.15625,-19.04296875,0.0
7855.556333666,-22.4609375,-32.2265625,-27.83203125,-19.53125,0.0
7855.560239916,-28.80859375,-31.73828125,-16.11328125,-25.87890625,0.0
7855.564146166,-17.08984375,-29.296875,-24.4140625,-14.6484375,0.0
7855.568052416,-0.48828125,-33.69140625,-8.7890625,-7.32421875,0.0
7855.571958666,-17.08984375,-34.66796875,-18.5546875,-20.5078125,0.0
7855.613799625,-43.9453125,-30.2734375,-48.33984375,-37.109375,0.0
7855.617705875,-54.19921875,-37.109375,-40.52734375,-39.55078125,0.0
7855.60672925,-51.26953125,-39.0625,-22.94921875,-29.296875,0.0
7855.6106355,-53.7109375,-31.25,-13.18359375,-30.76171875,0.0
7855.61454175,-51.26953125,-29.296875,-29.78515625,-40.52734375,0.0
7855.618448,-43.9453125,-25.390625,-57.6171875,-42.48046875,0.0
7855.62235425,-39.55078125,-23.4375,-31.25,-43.45703125,0.0
7855.6262605,-27.83203125,-21.97265625,15.625,-41.50390625,0.0
7855.63016675,-28.3203125,-18.06640625,1.953125,-28.80859375,0.0
7855.634073,-46.38671875,-27.34375,-50.78125,-17.578125,0.0
7855.63797925,-55.17578125,-36.62109375,-38.0859375,-22.4609375,0.0
7855.6418855,-53.7109375,-24.90234375,-6.34765625,-20.5078125,0.0
7855.665919041,-38.0859375,-26.85546875,-22.94921875,-18.5546875,0.0
7855.648151666,-32.2265625,-34.1796875,-47.8515625,-30.2734375,0.0
7855.652057916,-35.64453125,-32.71484375,-40.0390625,-26.85546875,0.0
7855.655964166,-26.85546875,-36.1328125,-23.4375,-7.32421875,0.0
7855.659870416,-18.5546875,-32.2265625,-19.04296875,3.90625,0.0
7855.663776666,-17.578125,-27.34375,-67.3828125,12.20703125,0.0
7855.667682916,-20.99609375,-29.296875,-37.109375,12.6953125,0.0
7855.671589166,-11.23046875,-28.3203125,5.37109375,-3.41796875,0.0
7855.675495416,3.41796875,-27.34375,-28.80859375,-8.7890625,0.0
7855.679401666,-1.46484375,-24.4140625,-32.71484375,-14.16015625,0.0
7855.683307916,-20.5078125,-18.5546875,-2.9296875,-18.5546875,0.0
7855.687214166,-21.97265625,-20.01953125,-2.9296875,-19.53125,0.0
7855.691519625,-9.27734375,-28.3203125,-27.83203125,-11.23046875,0.0
7855.695425875,7.8125,-29.78515625,-22.4609375,11.71875,0.0
7855.699332125,4.39453125,-19.53125,-17.578125,9.765625,0.0
7855.703238375,-21.484375,-14.16015625,-23.4375,-22.4609375,0.0
7855.707144625,-26.3671875,-22.94921875,-44.43359375,-23.92578125,0.0
7855.711050875,-8.7890625,-33.203125,-48.33984375,-0.48828125,0.0
7855.714957125,5.859375,-34.1796875,-39.0625,14.6484375,0.0
7855.718863375,8.30078125,-32.71484375,-43.45703125,23.92578125,0.0
7855.722769625,21.484375,-29.78515625,-51.26953125,18.5546875,0.0
7855.726675875,32.2265625,-27.34375,-41.50390625,33.203125,0.0
7855.730582125,25.87890625,-28.3203125,-24.4140625,48.33984375,0.0
7855.734488375,33.69140625,-26.85546875,-41.50390625,52.24609375,0.0
7855.73754525,41.015625,-20.5078125,-39.0625,50.29296875,0.0
7855.7414515,43.45703125,-20.99609375,-20.5078125,41.015625,0.0
7855.74535775,36.62109375,-29.296875,-25.87890625,39.55078125,0.0
7855.749264,26.85546875,-37.59765625,-49.31640625,28.80859375,0.0
7855.75317025,40.0390625,-36.1328125,-40.0390625,22.4609375,0.0
7855.7570765,41.015625,-25.87890625,-24.4140625,20.99609375,0.0
7855.76098275,33.69140625,-27.83203125,-3.90625,12.20703125,0.0
7855.764889,31.73828125,-25.390625,-22.4609375,11.71875,0.0
7855.76879525,30.76171875,-22.4609375,-58.10546875,19.04296875,0.0
7855.7727015,41.015625,-22.4609375,-12.20703125,31.73828125,0.0
7855.77660775,27.34375,-17.578125,23.92578125,38.57421875,0.0
7855.780514,6.34765625,-23.4375,-28.80859375,34.66796875,0.0
7855.757879416,5.37109375,-28.80859375,-28.3203125,28.80859375,0.0
7855.761785666,10.7421875,-32.71484375,-1.46484375,18.06640625,0.0
7855.765691916,8.30078125,-37.109375,-11.23046875,20.01953125,0.0
7855.769598166,4.39453125,-41.015625,-34.66796875,22.94921875,0.0
7855.773504416,9.27734375,-38.0859375,-43.9453125,35.15625,0.0
7855.777410666,13.671875,-33.203125,-21.97265625,34.66796875,0.0
7855.781316916,11.23046875,-32.2265625,-9.765625,24.4140625,0.0
7855.785223166,16.6015625,-35.15625,-41.50390625,32.2265625,0.0
7855.789129416,15.625,-35.15625,-47.36328125,25.390625,0.0
7855.793035666,15.13671875,-29.296875,11.23046875,-1.46484375,0.0
7855.796941916,21.97265625,-25.87890625,-10.7421875,-1.46484375,0.0
7855.800848166,22.94921875,-26.3671875,-34.1796875,19.04296875,0.0
7855.840445625,17.578125,-30.76171875,-30.2734375,17.578125,0.0
7855.844351875,9.27734375,-31.73828125,-7.8125,15.13671875,0.0
7855.832521,3.90625,-27.83203125,-12.20703125,26.3671875,0.0
7855.83642725,1.46484375,-28.80859375,-11.23046875,18.06640625,0.0
7855.8403335,-4.8828125,-34.1796875,-21.97265625,0.0,0.0
7855.84423975,-9.27734375,-37.109375,-41.015625,-3.41796875,0.0
7855.848146,-5.859375,-36.62109375,-7.8125,-3.90625,0.0
7855.85205225,12.6953125,-32.2265625,-23.4375,0.9765625,0.0
7855.8559585,22.94921875,-26.3671875,-19.04296875,6.8359375,0.0
7855.85986475,-0.48828125,-24.4140625,4.8828125,5.859375,0.0
7855.863771,-17.578125,-26.3671875,-4.39453125,0.0,0.0
7855.86767725,-9.27734375,-29.296875,11.23046875,1.953125,0.0
7855.872281666,-6.8359375,-35.15625,15.13671875,6.34765625,0.0
7855.876187916,-11.23046875,-35.15625,-29.296875,9.765625,0.0
7855.880094166,-13.18359375,-32.2265625,-20.5078125,4.39453125,0.0
7855.884000416,-25.87890625,-34.66796875,15.625,-8.7890625,0.0
7855.887906666,-28.80859375,-35.15625,4.39453125,-11.71875,0.0
7855.891812916,-29.296875,-33.69140625,-38.0859375,-11.23046875,0.0
7855.895719166,-34.66796875,-32.71484375,-37.59765625,-10.25390625,0.0
7855.899625416,-30.2734375,-36.62109375,-0.48828125,-12.20703125,0.0
7855.903531666,-21.484375,-39.55078125,28.80859375,-14.6484375,0.0
7855.907437916,-12.6953125,-38.57421875,-19.53125,-7.32421875,0.0
7855.911344166,-23.92578125,-35.64453125,-54.6875,-7.8125,0.0
7855.915250416,-30.76171875,-35.15625,-25.390625,-15.625,0.0
7855.892717583,-18.5546875,-34.66796875,8.30078125,-15.625,0.0
7855.896623833,-12.20703125,-28.3203125,4.8828125,-10.7421875,0.0
7855.900530083,-16.6015625,-26.85546875,-8.7890625,-8.30078125,0.0
7855.904436333,-13.18359375,-27.34375,20.5078125,-0.9765625,0.0
7855.908342583,-21.484375,-32.2265625,22.4609375,7.8125,0.0
7855.912248833,-41.50390625,-38.57421875,1.46484375,-9.27734375,0.0
7855.916155083,-31.73828125,-37.59765625,-34.1796875,-7.32421875,0.0
7855.920061333,-21.97265625,-32.2265625,11.71875,2.9296875,0.0
7855.923967583,-23.92578125,-30.76171875,43.9453125,4.8828125,0.0
7855.927873833,-16.6015625,-25.390625,7.32421875,17.578125,0.0
7855.931780083,-1.953125,-21.484375,-4.8828125,13.18359375,0.0
7855.935686333,-2.9296875,-24.90234375,4.39453125,9.27734375,0.0
7855.96296725,-0.48828125,-24.90234375,5.37109375,-9.765625,0.0
7855.9668735,1.46484375,-22.4609375,-8.7890625,-28.3203125,0.0
7855.97077975,-7.8125,-20.01953125,-20.5078125,-16.6015625,0.0
7855.974686,-16.11328125,-18.06640625,-7.8125,-11.71875,0.0
7855.97859225,-31.25,-22.94921875,2.44140625,-30.2734375,0.0
7855.9824985,-41.015625,-23.92578125,-14.6484375,-32.2265625,0.0
7855.98640475,-46.38671875,-22.94921875,-11.71875,-24.4140625,0.0
7855.990311,-53.22265625,-20.5078125,8.7890625,-40.52734375,0.0
7855.99421725,-73.73046875,-23.92578125,15.13671875,-62.01171875,0.0
7855.9981235,-87.40234375,-27.34375,-4.8828125,-66.40625,0.0
7856.00202975,-104.4921875,-25.390625,-4.8828125,-82.03125,0.0
7856.005936,-122.55859375,-21.484375,4.39453125,-95.703125,0.0
7856.005126791,-119.140625,-15.13671875,12.20703125,-108.3984375,0.0
7856.009033041,-132.32421875,-15.625,16.6015625,-126.46484375,0.0
7856.012939291,-157.2265625,-17.578125,24.4140625,-135.25390625,0.0
7856.016845541,-175.78125,-15.625,18.06640625,-150.87890625,0.0
7856.020751791,-205.078125,-12.20703125,8.30078125,-163.0859375,0.0
7856.024658041,-227.5390625,-7.32421875,1.46484375,-206.54296875,0.0
7856.028564291,-243.1640625,-4.39453125,36.1328125,-253.90625,0.0
7856.032470541,-256.34765625,-9.765625,43.45703125,-262.20703125,0.0
7856.036376791,-271.97265625,-12.20703125,4.8828125,-271.484375,0.0
7856.040283041,-297.8515625,-12.20703125,15.625,-289.55078125,0.0
7856.044189291,-309.5703125,-8.30078125,55.17578125,-309.08203125,0.0
7856.048095541,-299.8046875,-1.953125,50.29296875,-303.22265625,0.0
7856.052639041,-297.8515625,-5.859375,10.25390625,-292.96875,0.0
7856.056545291,-304.19921875,-10.25390625,23.92578125,-303.7109375,0.0
7856.060451541,-320.80078125,-10.7421875,45.41015625,-304.19921875,0.0
7856.064357791,-316.89453125,-12.6953125,40.52734375,-304.19921875,0.0
7856.068264041,-302.24609375,-16.11328125,3.90625,-302.24609375,0.0
7856.072170291,-295.8984375,-19.04296875,7.8125,-288.57421875,0.0
7856.076076541,-280.76171875,-27.83203125,36.1328125,-270.99609375,0.0
7856.079982791,-270.5078125,-29.296875,75.68359375,-259.27734375,0.0
7856.083889041,-264.6484375,-22.94921875,79.58984375,-248.53515625,0.0
7856.087795291,-247.55859375,-24.4140625,66.40625,-228.515625,0.0
7856.091701541,-224.609375,-31.25,89.84375,-215.33203125,0.0
7856.095607791,-208.49609375,-33.203125,52.24609375,-200.1953125,0.0
7856.100090083,-192.87109375,-34.1796875,14.16015625,-182.12890625,0.0
7856.103996333,-178.22265625,-44.921875,20.01953125,-172.36328125,0.0
7856.107902583,-151.3671875,-51.7578125,43.9453125,-153.3203125,0.0
7856.111808833,-125.48828125,-47.36328125,35.15625,-136.71875,0.0
7856.115715083,-117.1875,-48.33984375,11.23046875,-127.9296875,0.0
7856.119621333,-92.7734375,-45.8984375,1.953125,-94.7265625,0.0
7856.123527583,-63.96484375,-45.41015625,48.828125,-62.98828125,0.0
7856.127433833,-48.828125,-55.17578125,51.7578125,-48.33984375,0.0
7856.131340083,-24.4140625,-59.5703125,0.48828125,-11.71875,0.0
7856.135246333,-10.25390625,-58.10546875,1.953125,16.11328125,0.0
7856.139152583,-6.8359375,-64.453125,34.1796875,17.08984375,0.0
7856.143058833,20.99609375,-60.05859375,27.34375,36.1328125,0.0
7856.156478333,46.38671875,-52.24609375,23.92578125,62.01171875,0.0
7856.160384583,41.50390625,-59.5703125,18.5546875,67.87109375,0.0
7856.164290833,49.8046875,-62.5,-5.859375,68.84765625,0.0
7856.168197083,72.75390625,-58.10546875,2.44140625,74.21875,0.0
7856.172103333,76.171875,-57.12890625,5.37109375,86.42578125,0.0
7856.176009583,76.66015625,-51.7578125,-7.8125,97.16796875,0.0
7856.179915833,73.2421875,-50.78125,-13.671875,91.796875,0.0
7856.183822083,77.1484375,-52.24609375,-10.25390625,86.42578125,0.0
7856.187728333,75.68359375,-50.78125,5.859375,84.9609375,0.0
7856.191634583,55.17578125,-49.31640625,25.87890625,79.1015625,0.0
7856.195540833,45.41015625,-49.8046875,-11.71875,79.58984375,0.0
7856.199447083,32.71484375,-56.15234375,-13.18359375,74.21875,0.0
7856.176869875,29.296875,-52.734375,5.37109375,64.453125,0.0
7856.180776125,38.57421875,-43.9453125,12.20703125,55.17578125,0.0
7856.184682375,34.1796875,-46.875,-33.69140625,52.24609375,0.0
7856.188588625,9.765625,-50.78125,-33.203125,41.50390625,0.0
7856.192494875,-9.27734375,-47.36328125,0.0,10.7421875,0.0
7856.196401125,-17.578125,-40.0390625,-10.7421875,-21.484375,0.0
7856.200307375,-39.55078125,-37.59765625,-18.5546875,-45.8984375,0.0
7856.204213625,-68.359375,-34.1796875,-41.50390625,-55.17578125,0.0
7856.208119875,-100.09765625,-30.76171875,11.23046875,-82.03125,0.0
7856.212026125,-129.8828125,-29.296875,33.69140625,-116.2109375,0.0
7856.215932375,-150.390625,-28.80859375,-22.4609375,-142.08984375,0.0
7856.219838625,-170.41015625,-22.94921875,-33.203125,-164.0625,0.0
7856.222253458,-183.59375,-17.578125,1.46484375,-171.38671875,0.0
7856.226159708,-185.546875,-22.94921875,1.953125,-174.8046875,0.0
7856.230065958,-180.17578125,-28.80859375,-26.3671875,-172.36328125,0.0
7856.233972208,-158.69140625,-21.97265625,-29.78515625,-153.80859375,0.0
7856.237878458,-140.13671875,-22.94921875,-5.859375,-133.7890625,0.0
7856.241784708,-128.90625,-37.109375,-4.8828125,-122.55859375,0.0
7856.245690958,-106.93359375,-36.62109375,-10.7421875,-113.76953125,0.0
7856.249597208,-88.37890625,-39.0625,-20.5078125,-88.8671875,0.0
7856.253503458,-80.56640625,-51.7578125,12.6953125,-66.89453125,0.0
7856.257409708,-79.58984375,-52.24609375,18.5546875,-67.3828125,0.0
7856.261315958,-63.96484375,-52.734375,4.39453125,-53.7109375,0.0
7856.265222208,-28.80859375,-58.10546875,-8.30078125,-24.4140625,0.0
7856.309861041,-3.41796875,-55.17578125,-7.8125,17.578125,0.0
7856.295890041,17.578125,-55.17578125,9.27734375,34.66796875,0.0
7856.299796291,40.0390625,-63.96484375,0.0,41.015625,0.0
7856.303702541,63.96484375,-62.01171875,8.7890625,53.7109375,0.0
7856.307608791,73.2421875,-57.12890625,-19.04296875,71.2890625,0.0
7856.311515041,87.890625,-61.5234375,-13.671875,94.23828125,0.0
7856.315421291,104.4921875,-65.91796875,-16.11328125,100.09765625,0.0
7856.319327541,116.2109375,-63.4765625,-7.8125,114.2578125,0.0
7856.323233791,125.0,-59.08203125,3.41796875,133.7890625,0.0
7856.327140041,121.58203125,-66.89453125,-18.06640625,139.6484375,0.0
7856.331046291,123.53515625,-70.3125,-5.859375,136.23046875,0.0
7856.334952541,124.0234375,-69.82421875,6.8359375,141.11328125,0.0
7856.335418958,129.8828125,-67.87109375,-4.39453125,145.01953125,0.0
7856.339325208,140.625,-63.96484375,-32.71484375,139.6484375,0.0
7856.343231458,131.34765625,-62.98828125,-16.11328125,145.5078125,0.0
7856.347137708,125.9765625,-57.12890625,5.37109375,156.25,0.0
7856.351043958,133.7890625,-52.24609375,-14.16015625,160.15625,0.0
7856.354950208,133.30078125,-50.78125,-38.57421875,156.73828125,0.0
7856.358856458,135.7421875,-52.734375,-9.765625,147.4609375,0.0
7856.362762708,138.18359375,-54.6875,21.97265625,143.5546875,0.0
7856.366668958,137.20703125,-57.12890625,-0.48828125,142.08984375,0.0
7856.370575208,133.30078125,-56.640625,-40.0390625,139.16015625,0.0
7856.374481458,124.0234375,-52.24609375,-0.9765625,132.32421875,0.0
7856.378387708,123.046875,-53.22265625,40.0390625,128.41796875,0.0
7856.381540666,119.62890625,-57.6171875,6.34765625,127.9296875,0.0
7856.385446916,116.2109375,-57.6171875,-40.0390625,130.37109375,0.0
7856.389353166,111.81640625,-53.7109375,-9.765625,130.37109375,0.0
7856.393259416,115.72265625,-57.6171875,6.34765625,120.1171875,0.0
7856.397165666,130.37109375,-55.17578125,-17.578125,115.234375,0.0
7856.401071916,124.51171875,-49.8046875,-63.4765625,133.30078125,0.0
7856.404978166,113.76953125,-50.78125,-33.203125,141.6015625,0.0
7856.408884416,118.1640625,-45.41015625,20.01953125,125.9765625,0.0
7856.412790666,115.234375,-44.921875,-14.16015625,116.2109375,0.0
7856.416696916,99.609375,-50.78125,-20.5078125,115.234375,0.0
7856.420603166,84.9609375,-54.19921875,-22.4609375,104.4921875,0.0
7856.424509416,77.63671875,-51.26953125,-20.01953125,101.5625,0.0
7856.425798458,96.19140625,-44.43359375,-22.4609375,105.46875,0.0
7856.429704708,106.93359375,-41.50390625,-14.6484375,100.5859375,0.0
7856.433610958,86.42578125,-44.43359375,-11.71875,95.703125,0.0
7856.437517208,68.84765625,-46.38671875,-14.16015625,88.8671875,0.0
7856.441423458,68.84765625,-44.921875,-16.6015625,83.49609375,0.0
7856.445329708,77.1484375,-48.828125,-23.4375,91.796875,0.0
7856.449235958,68.84765625,-54.19921875,-32.71484375,99.609375,0.0
7856.453142208,52.734375,-48.828125,-30.2734375,89.35546875,0.0
7856.457048458,55.6640625,-38.0859375,-35.15625,72.265625,0.0
7856.460954708,70.3125,-34.1796875,-20.5078125,60.546875,0.0
7856.464860958,54.19921875,-36.62109375,6.34765625,77.63671875,0.0
7856.468767208,32.71484375,-46.875,-28.80859375,75.1953125,0.0
7856.472609375,35.64453125,-50.78125,-40.0390625,50.78125,0.0
7856.476515625,40.52734375,-41.9921875,-24.90234375,56.15234375,0.0
7856.480421875,59.08203125,-34.66796875,-16.6015625,45.41015625,0.0
7856.484328125,55.6640625,-30.2734375,-36.1328125,41.015625,0.0
7856.488234375,25.390625,-38.0859375,-43.45703125,45.41015625,0.0
7856.492140625,14.16015625,-41.015625,-38.0859375,42.48046875,0.0
7856.496046875,20.5078125,-36.1328125,-29.296875,34.1796875,0.0
7856.499953125,29.78515625,-41.015625,-51.26953125,21.97265625,0.0
7856.503859375,14.16015625,-42.48046875,-62.5,20.99609375,0.0
7856.507765625,-7.8125,-42.48046875,-21.484375,26.3671875,0.0
7856.511671875,4.8828125,-36.62109375,-10.7421875,35.64453125,0.0
7856.515578125,19.53125,-29.78515625,-54.6875,31.25,0.0
7856.519745083,20.01953125,-26.85546875,-41.9921875,25.87890625,0.0
7856.523651333,28.80859375,-24.90234375,-26.3671875,26.85546875,0.0
7856.527557583,41.50390625,-32.71484375,-29.78515625,18.06640625,0.0
7856.531463833,27.83203125,-39.55078125,-63.96484375,12.20703125,0.0
7856.535370083,14.6484375,-40.52734375,-84.47265625,20.99609375,0.0
7856.539276333,16.6015625,-41.50390625,-51.7578125,24.90234375,0.0
7856.543182583,7.8125,-41.015625,-41.015625,9.27734375,0.0
7856.547088833,8.30078125,-35.15625,-63.4765625,-0.48828125,0.0
7856.550995083,2.9296875,-36.1328125,-72.265625,12.6953125,0.0
7856.554901333,-6.8359375,-40.0390625,-29.78515625,11.23046875,0.0
7856.558807583,-7.32421875,-40.52734375,-50.29296875,12.20703125,0.0
7856.562713833,-2.44140625,-45.41015625,-58.59375,12.6953125,0.0
7856.60913975,0.48828125,-39.55078125,-58.10546875,11.23046875,0.0
7856.595132916,8.30078125,-39.0625,-55.17578125,15.13671875,0.0
7856.599039166,1.953125,-43.45703125,-36.62109375,16.6015625,0.0
7856.602945416,-7.8125,-38.57421875,-35.64453125,17.578125,0.0
7856.606851666,-9.27734375,-32.71484375,-61.03515625,10.7421875,0.0
7856.610757916,-16.6015625,-33.203125,-60.05859375,12.20703125,0.0
7856.614664166,-9.27734375,-36.1328125,-25.87890625,12.20703125,0.0
7856.618570416,-5.859375,-36.1328125,-57.12890625,12.20703125,0.0
7856.622476666,-8.30078125,-37.59765625,-56.15234375,14.16015625,0.0
7856.626382916,-8.30078125,-38.0859375,-38.57421875,14.16015625,0.0
7856.630289166,-20.01953125,-37.59765625,-37.59765625,14.6484375,0.0
7856.634195416,-24.90234375,-41.50390625,-31.73828125,5.859375,0.0
7856.615027166,-9.27734375,-37.109375,-35.15625,10.7421875,0.0
7856.618933416,0.9765625,-35.64453125,-48.33984375,12.6953125,0.0
7856.622839666,11.23046875,-43.45703125,-52.734375,-1.953125,0.0
7856.626745916,4.8828125,-42.96875,-43.9453125,-2.44140625,0.0
7856.630652166,-7.32421875,-40.0390625,-37.59765625,0.9765625,0.0
7856.634558416,-10.25390625,-39.55078125,-60.546875,-2.9296875,0.0
7856.638464666,-18.06640625,-37.109375,-66.89453125,-12.20703125,0.0
7856.642370916,-25.390625,-36.1328125,-31.73828125,-11.23046875,0.0
7856.646277166,-29.78515625,-34.1796875,-4.39453125,-3.41796875,0.0
7856.650183416,-30.2734375,-39.0625,-45.8984375,-7.8125,0.0
7856.654089666,-24.90234375,-51.26953125,-71.77734375,-18.06640625,0.0
7856.657995916,-10.7421875,-50.29296875,-43.9453125,-26.3671875,0.0
7856.662881833,-14.16015625,-47.36328125,-19.04296875,-24.90234375,0.0
7856.666788083,-23.4375,-46.38671875,-42.96875,-18.5546875,0.0
7856.670694333,-18.06640625,-43.45703125,-69.82421875,-19.04296875,0.0
7856.674600583,-17.08984375,-39.55078125,-28.80859375,-12.6953125,0.0
7856.678506833,-31.25,-44.43359375,-22.94921875,-14.6484375,0.0
7856.682413083,-25.87890625,-50.29296875,-40.0390625,-19.04296875,0.0
7856.686319333,-16.11328125,-51.26953125,-70.3125,-16.11328125,0.0
7856.690225583,-11.23046875,-46.38671875,-47.36328125,-16.11328125,0.0
7856.694131833,-6.8359375,-41.50390625,2.44140625,-14.16015625,0.0
7856.698038083,-21.97265625,-43.9453125,-33.69140625,-5.37109375,0.0
7856.701944333,-49.8046875,-43.9453125,-41.50390625,-9.27734375,0.0
7856.705850583,-47.36328125,-40.52734375,-23.4375,-7.32421875,0.0
7856.706299333,-29.78515625,-37.59765625,4.8828125,-3.90625,0.0
7856.710205583,-18.06640625,-39.0625,2.44140625,-11.23046875,0.0
7856.714111833,-13.671875,-42.48046875,-18.06640625,-6.8359375,0.0
7856.718018083,-20.5078125,-41.50390625,2.44140625,-0.9765625,0.0
7856.721924333,-18.5546875,-42.96875,-2.44140625,1.46484375,0.0
7856.725830583,-9.765625,-34.1796875,-23.4375,-0.9765625,0.0
7856.729736833,-12.6953125,-33.203125,-19.04296875,0.9765625,0.0
7856.733643083,-18.06640625,-37.109375,-4.8828125,-9.765625,0.0
7856.737549333,-21.484375,-39.55078125,16.11328125,-16.11328125,0.0
7856.741455583,-24.90234375,-51.26953125,-2.9296875,-14.6484375,0.0
7856.745361833,-18.5546875,-49.31640625,-11.23046875,-13.671875,0.0
7856.749268083,-11.71875,-48.33984375,-5.859375,-9.27734375,0.0
7856.749451375,-15.13671875,-49.31640625,-9.765625,-14.16015625,0.0
7856.753357625,-26.85546875,-41.9921875,-4.8828125,-6.8359375,0.0
7856.757263875,-14.16015625,-34.66796875,-3.41796875,1.46484375,0.0
7856.761170125,-11.23046875,-32.71484375,-28.3203125,-12.20703125,0.0
7856.765076375,-26.85546875,-38.0859375,-44.921875,-19.04296875,0.0
7856.768982625,-20.01953125,-41.015625,-45.41015625,-11.23046875,0.0
7856.772888875,-23.4375,-39.0625,-12.20703125,-1.953125,0.0
7856.776795125,-26.85546875,-30.76171875,-18.5546875,10.25390625,0.0
7856.780701375,-21.97265625,-28.80859375,-63.96484375,12.20703125,0.0
7856.784607625,-34.66796875,-32.2265625,-16.11328125,8.7890625,0.0
7856.788513875,-38.57421875,-32.71484375,-7.8125,-3.90625,0.0
7856.792420125,-27.83203125,-37.59765625,-35.64453125,-15.13671875,0.0
7856.791335375,-29.78515625,-43.9453125,-77.1484375,-9.765625,0.0
7856.795241625,-36.62109375,-45.41015625,-49.8046875,-9.27734375,0.0
7856.799147875,-34.1796875,-42.48046875,-19.04296875,-10.7421875,0.0
7856.803054125,-34.66796875,-36.1328125,-36.1328125,-8.7890625,0.0
7856.806960375,-33.203125,-33.203125,-72.75390625,-18.06640625,0.0
7856.810866625,-21.484375,-35.64453125,-59.5703125,-27.34375,0.0
7856.814772875,-32.71484375,-37.109375,-22.94921875,-26.3671875,0.0
7856.818679125,-33.69140625,-38.57421875,-21.484375,-28.80859375,0.0
7856.822585375,-29.296875,-45.41015625,-57.6171875,-37.109375,0.0
7856.826491625,-39.0625,-48.33984375,-61.03515625,-34.1796875,0.0
7856.830397875,-36.62109375,-50.78125,-21.484375,-31.73828125,0.0
7856.834304125,-25.390625,-55.6640625,-40.0390625,-37.109375,0.0
7856.859390291,-22.4609375,-51.7578125,-48.828125,-31.25,0.0
7856.863296541,-16.6015625,-45.8984375,-51.7578125,-13.671875,0.0
7856.867202791,-29.296875,-44.921875,-32.71484375,-13.18359375,0.0
7856.871109041,-51.7578125,-46.875,-30.76171875,-28.80859375,0.0
7856.875015291,-49.31640625,-42.96875,-56.15234375,-27.83203125,0.0
7856.878921541,-48.33984375,-37.59765625,-78.61328125,-20.01953125,0.0
7856.882827791,-55.6640625,-42.48046875,-30.76171875,-23.4375,0.0
7856.886734041,-49.31640625,-49.31640625,-36.62109375,-29.296875,0.0
7856.890640291,-40.0390625,-45.41015625,-93.26171875,-17.08984375,0.0
7856.894546541,-47.8515625,-45.41015625,-74.70703125,-10.25390625,0.0
7856.898452791,-47.36328125,-49.8046875,-36.62109375,-20.99609375,0.0
7856.902359041,-38.0859375,-51.26953125,-44.43359375,-15.13671875,0.0
7856.919526458,-34.1796875,-46.875,-39.55078125,-2.9296875,0.0
7856.923432708,-25.390625,-44.921875,-55.6640625,-3.90625,0.0
7856.91190625,-9.765625,-44.921875,-58.59375,-0.9765625,0.0
7856.9158125,4.39453125,-44.43359375,-33.69140625,-6.34765625,0.0
7856.91971875,-5.859375,-41.9921875,-45.8984375,-11.71875,0.0
7856.923625,-9.765625,-42.48046875,-53.7109375,-4.8828125,0.0
7856.92753125,-19.53125,-51.26953125,-59.08203125,-2.9296875,0.0
7856.9314375,-26.3671875,-49.31640625,-53.22265625,-11.23046875,0.0
7856.93534375,-26.3671875,-37.59765625,-17.08984375,-8.30078125,0.0
7856.93925,-29.296875,-35.15625,8.30078125,-1.953125,0.0
7856.94315625,-31.73828125,-36.62109375,-43.45703125,2.44140625,0.0
7856.9470625,-28.3203125,-34.66796875,-59.08203125,-1.953125,0.0
7856.969327875,-17.578125,-35.64453125,-26.85546875,-3.90625,0.0
7856.955272166,-12.6953125,-41.50390625,-14.6484375,0.9765625,0.0
7856.959178416,-13.671875,-40.52734375,-46.38671875,0.0,0.0
7856.963084666,-26.85546875,-40.52734375,-57.12890625,-0.9765625,0.0
7856.966990916,-29.78515625,-45.41015625,-36.1328125,-5.859375,0.0
7856.970897166,-21.484375,-43.9453125,-31.73828125,-14.16015625,0.0
7856.974803416,-22.4609375,-41.50390625,-53.7109375,-20.99609375,0.0
7856.978709666,-32.71484375,-41.50390625,-79.1015625,-8.30078125,0.0
7856.982615916,-25.390625,-43.9453125,-32.2265625,-8.30078125,0.0
7856.986522166,-29.78515625,-44.43359375,-4.8828125,-22.4609375,0.0
7856.990428416,-32.71484375,-43.9453125,-52.24609375,-16.6015625,0.0
7856.994334666,-35.15625,-44.921875,-51.7578125,-18.5546875,0.0
7856.971707541,-42.96875,-46.38671875,-27.83203125,-15.625,0.0
7856.975613791,-42.96875,-44.43359375,-26.85546875,-19.53125,0.0
7856.979520041,-40.0390625,-42.48046875,-41.9921875,-13.671875,0.0
7856.983426291,-32.2265625,-43.9453125,-62.98828125,-14.6484375,0.0
7856.987332541,-22.4609375,-40.0390625,-43.9453125,-22.94921875,0.0
7856.991238791,-19.04296875,-35.15625,-33.203125,-11.23046875,0.0
7856.995145041,-29.78515625,-37.59765625,-43.9453125,-10.7421875,0.0
7856.999051291,-32.71484375,-36.1328125,-56.15234375,-21.484375,0.0
7857.002957541,-35.15625,-34.1796875,-10.25390625,-23.92578125,0.0
7857.006863791,-24.4140625,-39.0625,-15.13671875,-25.87890625,0.0
7857.010770041,-12.20703125,-40.52734375,-57.12890625,-19.53125,0.0
7857.014676291,-31.25,-42.96875,-57.12890625,-16.6015625,0.0
7857.017219375,-34.66796875,-42.48046875,-44.43359375,-15.13671875,0.0
7857.021125625,-30.76171875,-25.390625,-37.109375,-19.53125,0.0
7857.025031875,-28.3203125,-21.97265625,-39.55078125,-28.80859375,0.0
7857.028938125,-22.94921875,-28.80859375,-18.5546875,-21.484375,0.0
7857.032844375,-27.34375,-32.2265625,-36.1328125,-12.6953125,0.0
7857.036750625,-19.04296875,-39.0625,-32.71484375,-7.8125,0.0
7857.040656875,-17.08984375,-42.96875,-51.26953125,-6.8359375,0.0
7857.044563125,-19.53125,-40.52734375,-28.3203125,-0.48828125,0.0
7857.048469375,-14.16015625,-32.71484375,-8.30078125,2.44140625,0.0
7857.052375625,-9.765625,-32.71484375,-50.78125,0.48828125,0.0
7857.056281875,-8.7890625,-34.1796875,-10.7421875,-0.48828125,0.0
7857.060188125,-22.94921875,-43.9453125,0.0,-15.625,0.0
7857.087593208,-23.92578125,-44.43359375,-44.921875,-24.90234375,0.0
7857.091499458,-15.13671875,-34.66796875,-62.5,-18.5546875,0.0
7857.095405708,-12.6953125,-42.48046875,-39.0625,-17.08984375,0.0
7857.099311958,-14.6484375,-49.8046875,-25.87890625,-14.6484375,0.0
7857.103218208,-17.578125,-44.43359375,-56.15234375,-8.7890625,0.0
7857.107124458,-22.4609375,-37.109375,-91.30859375,-18.5546875,0.0
7857.111030708,-23.92578125,-45.41015625,-59.08203125,-28.3203125,0.0
7857.114936958,-21.484375,-50.78125,2.44140625,-32.2265625,0.0
7857.118843208,-18.06640625,-47.8515625,-32.71484375,-35.64453125,0.0
7857.122749458,-15.13671875,-48.33984375,-97.16796875,-24.4140625,0.0
7857.126655708,-23.92578125,-48.828125,-66.89453125,-20.01953125,0.0
7857.130561958,-23.4375,-53.7109375,-46.875,-25.87890625,0.0
7857.135981083,-20.5078125,-52.24609375,-72.265625,-22.94921875,0.0
7857.139887333,-25.87890625,-53.22265625,-83.0078125,-21.484375,0.0
7857.143793583,-29.78515625,-55.17578125,-61.03515625,-24.4140625,0.0
7857.147699833,-28.80859375,-50.78125,-35.15625,-26.85546875,0.0
7857.151606083,-19.04296875,-51.26953125,-51.26953125,-27.83203125,0.0
7857.155512333,-9.27734375,-46.38671875,-89.35546875,-20.01953125,0.0
7857.159418583,-27.34375,-40.0390625,-53.22265625,-22.94921875,0.0
7857.163324833,-51.26953125,-40.0390625,-16.11328125,-23.92578125,0.0
7857.167231083,-42.96875,-43.9453125,-57.12890625,-19.04296875,0.0
7857.171137333,-30.76171875,-49.8046875,-65.4296875,-32.2265625,0.0
7857.175043583,-26.3671875,-32.71484375,-36.1328125,-31.73828125,0.0
7857.178949833,-20.01953125,-17.08984375,-31.25,-14.6484375,0.0
7857.179349125,-13.18359375,-21.484375,-50.78125,-10.25390625,0.0
7857.183255375,-13.18359375,-26.3671875,-54.19921875,0.9765625,0.0
7857.187161625,-23.4375,-30.2734375,-56.640625,6.34765625,0.0
7857.191067875,-38.57421875,-36.1328125,-41.015625,-14.6484375,0.0
7857.194974125,-31.25,-41.015625,-35.64453125,-22.94921875,0.0
7857.198880375,-18.5546875,-45.8984375,-35.64453125,-23.92578125,0.0
7857.202786625,-19.04296875,-48.33984375,-37.109375,-20.01953125,0.0
7857.206692875,-27.83203125,-41.015625,-29.78515625,-11.71875,0.0
7857.210599125,-29.296875,-38.0859375,-25.87890625,-9.765625,0.0
7857.214505375,-16.11328125,-36.62109375,-21.97265625,-8.30078125,0.0
7857.218411625,-11.71875,-37.59765625,-7.8125,-13.671875,0.0
7857.222317875,-15.13671875,-40.0390625,-42.96875,-10.25390625,0.0
7857.225233958,-10.7421875,-40.0390625,-30.76171875,-3.90625,0.0
7857.229140208,-8.30078125,-41.9921875,-14.16015625,-6.8359375,0.0
7857.233046458,-9.27734375,-42.48046875,-14.16015625,-18.5546875,0.0
7857.236952708,-11.23046875,-43.45703125,-33.69140625,-26.3671875,0.0
7857.240858958,-15.625,-43.9453125,-30.76171875,-27.34375,0.0
7857.244765208,-26.85546875,-42.96875,-16.11328125,-29.296875,0.0
7857.248671458,-31.73828125,-40.52734375,-20.01953125,-21.484375,0.0
7857.252577708,-25.87890625,-40.52734375,-40.52734375,-9.765625,0.0
7857.256483958,-28.80859375,-45.41015625,-52.734375,-6.8359375,0.0
7857.260390208,-19.53125,-49.8046875,-17.08984375,-9.765625,0.0
7857.264296458,-13.18359375,-48.828125,6.8359375,-8.7890625,0.0
7857.268202708,-19.04296875,-45.41015625,-44.43359375,-10.7421875,0.0
7857.267898458,-29.296875,-42.48046875,-37.59765625,-5.37109375,0.0
7857.271804708,-18.5546875,-42.48046875,-5.859375,-5.37109375,0.0
7857.275710958,0.9765625,-43.9453125,-9.27734375,-6.34765625,0.0
7857.279617208,-9.27734375,-45.8984375,-45.41015625,-3.41796875,0.0
7857.283523458,-28.3203125,-44.921875,-73.2421875,-0.9765625,0.0
7857.287429708,-24.4140625,-41.015625,-29.296875,-5.37109375,0.0
7857.291335958,-24.90234375,-39.0625,-11.23046875,-7.8125,0.0
7857.295242208,-27.34375,-41.50390625,-41.50390625,-3.90625,0.0
7857.299148458,-31.25,-44.43359375,-53.7109375,-10.7421875,0.0
7857.303054708,-31.73828125,-40.52734375,14.16015625,-14.16015625,0.0
7857.306960958,-20.99609375,-41.9921875,-2.44140625,-15.13671875,0.0
7857.310867208,-22.4609375,-46.38671875,-54.19921875,-12.20703125,0.0
7857.311991166,-17.08984375,-39.0625,-61.5234375,-8.30078125,0.0
7857.315897416,-8.30078125,-36.62109375,-26.3671875,-17.08984375,0.0
7857.319803666,-7.32421875,-42.48046875,-25.87890625,-20.5078125,0.0
7857.323709916,-23.92578125,-42.96875,-39.0625,-8.30078125,0.0
7857.327616166,-22.4609375,-41.50390625,-50.78125,-16.6015625,0.0
7857.331522416,-19.04296875,-40.0390625,-58.10546875,-28.3203125,0.0
7857.335428666,-21.484375,-44.921875,-28.80859375,-27.83203125,0.0
7857.339334916,-26.3671875,-54.19921875,-57.12890625,-19.04296875,0.0
7857.343241166,-28.80859375,-43.45703125,-47.8515625,-3.90625,0.0
7857.347147416,-26.85546875,-39.0625,-27.34375,-6.34765625,0.0
7857.351053666,-21.97265625,-45.41015625,-45.41015625,-12.20703125,0.0
7857.354959916,-28.80859375,-41.50390625,-12.20703125,-4.39453125,0.0
7857.35465275,-35.15625,-45.41015625,-9.27734375,-11.23046875,0.0
7857.358559,-34.1796875,-44.43359375,-51.7578125,-15.13671875,0.0
7857.36246525,-31.25,-40.0390625,-45.41015625,-10.7421875,0.0
7857.3663715,-35.64453125,-47.36328125,-22.4609375,-11.23046875,0.0
7857.37027775,-29.296875,-51.7578125,-30.2734375,-20.5078125,0.0
7857.374184,-23.4375,-45.8984375,-59.5703125,-20.5078125,0.0
7857.37809025,-34.1796875,-42.96875,-55.6640625,-9.765625,0.0
7857.3819965,-22.94921875,-42.48046875,-21.484375,-0.48828125,0.0
7857.38590275,-15.13671875,-41.50390625,22.94921875,0.48828125,0.0
7857.389809,-17.578125,-43.45703125,-14.16015625,-9.765625,0.0
7857.39371525,-17.578125,-46.38671875,-54.6875,-4.39453125,0.0
7857.3976215,-8.7890625,-41.9921875,-10.7421875,-3.90625,0.0
7857.402205333,-6.8359375,-38.57421875,22.4609375,-6.8359375,0.0
7857.406111583,-24.4140625,-44.43359375,-16.6015625,-8.30078125,0.0
7857.410017833,-31.73828125,-47.36328125,-37.109375,-6.8359375,0.0
7857.413924083,-22.94921875,-44.921875,7.8125,-5.859375,0.0
7857.417830333,-16.6015625,-44.43359375,-3.41796875,-6.34765625,0.0
7857.421736583,-14.6484375,-43.45703125,-30.76171875,-6.8359375,0.0
7857.425642833,-20.5078125,-39.55078125,-61.5234375,-3.41796875,0.0
7857.429549083,-22.94921875,-34.66796875,-29.296875,-4.39453125,0.0
7857.433455333,-20.01953125,-32.71484375,17.08984375,-9.27734375,0.0
7857.437361583,-10.25390625,-34.66796875,-25.390625,2.9296875,0.0
7857.441267833,-4.8828125,-34.1796875,-44.43359375,-1.953125,0.0
7857.445174083,-7.8125,-37.59765625,-23.92578125,-8.7890625,0.0
7857.492486375,-13.18359375,-43.9453125,-18.06640625,-15.625,0.0
7857.47459675,-15.13671875,-51.26953125,-41.9921875,-20.99609375,0.0
7857.478503,-20.99609375,-55.6640625,-53.7109375,-19.04296875,0.0
7857.48240925,-19.53125,-51.26953125,-51.7578125,-17.08984375,0.0
7857.4863155,-9.27734375,-44.43359375,-30.76171875,-19.04296875,0.0
7857.49022175,-13.671875,-38.0859375,-21.484375,-24.90234375,0.0
7857.494128,-20.5078125,-37.59765625,-33.203125,-16.6015625,0.0
7857.49803425,-22.4609375,-41.50390625,-18.06640625,-11.23046875,0.0
7857.5019405,-21.484375,-44.43359375,-9.765625,-20.99609375,0.0
7857.50584675,-13.18359375,-41.50390625,-33.203125,-24.4140625,0.0
7857.509753,-17.578125,-39.55078125,-36.62109375,-18.5546875,0.0
7857.51365925,-37.109375,-47.36328125,-34.66796875,-20.99609375,0.0
7857.515787958,-34.1796875,-48.828125,-35.15625,-16.6015625,0.0
7857.519694208,-28.3203125,-49.31640625,-35.64453125,-11.71875,0.0
7857.523600458,-31.73828125,-46.875,-22.4609375,-7.32421875,0.0
7857.527506708,-29.296875,-43.45703125,-32.71484375,-0.9765625,0.0
7857.531412958,-23.92578125,-43.9453125,-49.31640625,-8.30078125,0.0
7857.535319208,-19.53125,-43.45703125,-62.01171875,-16.11328125,0.0
7857.539225458,-23.92578125,-45.8984375,-42.96875,-12.6953125,0.0
7857.543131708,-28.80859375,-43.45703125,-13.671875,-13.18359375,0.0
7857.547037958,-37.59765625,-41.015625,-41.50390625,-4.39453125,0.0
7857.550944208,-37.109375,-42.48046875,-30.76171875,-6.34765625,0.0
7857.554850458,-27.34375,-42.96875,-11.23046875,-10.7421875,0.0
7857.558756708,-23.4375,-42.96875,-28.3203125,-7.32421875,0.0
7857.583668291,-23.4375,-45.41015625,-58.59375,-18.06640625,0.0
7857.566800291,-14.16015625,-46.38671875,-35.64453125,-17.578125,0.0
7857.570706541,-10.7421875,-41.50390625,-15.13671875,-6.34765625,0.0
7857.574612791,-6.8359375,-34.1796875,-29.78515625,-10.25390625,0.0
7857.578519041,4.8828125,-35.64453125,-51.7578125,-17.08984375,0.0
7857.582425291,-2.9296875,-41.50390625,-53.22265625,-22.4609375,0.0
7857.586331541,-9.27734375,-41.50390625,-11.23046875,-20.5078125,0.0
7857.590237791,-9.27734375,-40.52734375,0.48828125,-11.23046875,0.0
7857.594144041,-11.71875,-47.36328125,-49.8046875,-12.6953125,0.0
7857.598050291,-23.4375,-53.22265625,-54.19921875,-8.7890625,0.0
7857.601956541,-29.296875,-46.875,5.37109375,-7.8125,0.0
7857.605862791,-23.4375,-41.9921875,21.484375,-10.7421875,0.0
7857.628181041,-27.34375,-45.8984375,34.66796875,-16.6015625,0.0
7857.614208666,-37.109375,-47.8515625,12.20703125,-22.4609375,0.0
7857.618114916,-32.2265625,-42.96875,1.46484375,-23.4375,0.0
7857.622021166,-25.390625,-41.50390625,-16.11328125,-28.3203125,0.0
7857.625927416,-31.73828125,-46.38671875,-41.50390625,-17.08984375,0.0
7857.629833666,-37.109375,-41.50390625,-53.22265625,-3.90625,0.0
7857.633739916,-26.85546875,-38.57421875,-24.4140625,-5.37109375,0.0
7857.637646166,-15.13671875,-43.45703125,-18.06640625,-9.27734375,0.0
7857.641552416,-27.83203125,-49.8046875,-75.1953125,-3.90625,0.0
7857.645458666,-41.9921875,-52.24609375,-57.12890625,-5.37109375,0.0
7857.649364916,-44.43359375,-49.31640625,-17.08984375,-10.25390625,0.0
7857.653271166,-28.3203125,-42.48046875,-41.9921875,-10.25390625,0.0
7857.674345125,-20.01953125,-39.55078125,-33.203125,-15.625,0.0
7857.660306083,-29.296875,-40.0390625,-34.66796875,-11.71875,0.0
7857.664212333,-31.25,-40.0390625,-45.8984375,-5.859375,0.0
7857.668118583,-15.625,-41.50390625,-38.57421875,-5.859375,0.0
7857.672024833,-11.23046875,-39.0625,-46.38671875,-1.46484375,0.0
7857.675931083,-16.11328125,-39.0625,-51.7578125,0.48828125,0.0
7857.679837333,-28.80859375,-40.52734375,-49.31640625,-16.11328125,0.0
7857.683743583,-44.921875,-41.9921875,-43.9453125,-30.2734375,0.0
7857.687649833,-39.0625,-44.43359375,-34.1796875,-20.01953125,0.0
7857.691556083,-33.69140625,-48.828125,-8.30078125,-17.08984375,0.0
7857.695462333,-29.78515625,-45.8984375,-45.41015625,-24.90234375,0.0
7857.699368583,-23.92578125,-44.43359375,-57.6171875,-20.01953125,0.0
7857.676805375,-12.20703125,-42.96875,-41.015625,-18.06640625,0.0
7857.680711625,-6.34765625,-40.52734375,-31.25,-22.94921875,0.0
7857.684617875,-15.13671875,-42.96875,-70.80078125,-18.06640625,0.0
7857.688524125,-20.99609375,-43.9453125,-56.640625,-2.9296875,0.0
7857.692430375,-35.64453125,-46.38671875,-25.390625,-3.41796875,0.0
7857.696336625,-40.52734375,-46.875,-41.9921875,-10.25390625,0.0
7857.700242875,-30.2734375,-45.8984375,-44.43359375,-7.8125,0.0
7857.704149125,-26.85546875,-43.45703125,-79.58984375,-4.8828125,0.0
7857.708055375,-30.2734375,-42.96875,-40.52734375,-9.765625,0.0
7857.711961625,-28.80859375,-41.015625,-4.8828125,-12.20703125,0.0
7857.715867875,-19.04296875,-36.62109375,-47.36328125,-5.37109375,0.0
7857.719774125,-17.578125,-34.1796875,-48.828125,2.44140625,0.0
7857.763437,-17.578125,-39.0625,-24.4140625,13.18359375,0.0
7857.747262833,-8.30078125,-39.55078125,-22.94921875,14.6484375,0.0
7857.751169083,-10.25390625,-40.0390625,-44.921875,6.8359375,0.0
7857.755075333,-14.6484375,-41.50390625,-62.98828125,-4.8828125,0.0
7857.758981583,-20.5078125,-35.64453125,-34.1796875,-15.625,0.0
7857.762887833,-27.83203125,-33.203125,-33.69140625,-18.06640625,0.0
7857.766794083,-26.3671875,-39.0625,-35.64453125,-11.71875,0.0
7857.770700333,-32.2265625,-42.48046875,-51.26953125,-3.90625,0.0
7857.774606583,-33.203125,-41.9921875,-26.85546875,-11.23046875,0.0
7857.778512833,-22.4609375,-45.41015625,-19.04296875,-17.08984375,0.0
7857.782419083,-12.6953125,-43.9453125,-50.78125,-15.625,0.0
7857.786325333,-11.23046875,-35.15625,-50.78125,-5.859375,0.0
7857.790079666,-24.4140625,-36.62109375,-44.921875,3.41796875,0.0
7857.793985916,-24.4140625,-41.9921875,-46.875,0.9765625,0.0
7857.797892166,-12.20703125,-40.52734375,-53.7109375,-7.8125,0.0
7857.801798416,-3.41796875,-35.64453125,-34.1796875,-11.71875,0.0
7857.805704666,-14.16015625,-36.1328125,-25.87890625,-1.953125,0.0
7857.809610916,-25.87890625,-35.15625,-30.2734375,-5.37109375,0.0
7857.813517166,-23.4375,-32.2265625,-51.26953125,-13.18359375,0.0
7857.817423416,-15.625,-32.71484375,-43.9453125,-11.23046875,0.0
7857.821329666,-12.20703125,-34.66796875,-23.92578125,-11.71875,0.0
7857.825235916,-18.06640625,-37.109375,-34.1796875,-11.23046875,0.0
7857.829142166,-8.30078125,-38.57421875,-18.06640625,-14.6484375,0.0
7857.833048416,-8.7890625,-40.52734375,-20.5078125,-19.53125,0.0
7857.831342583,-23.4375,-41.50390625,-54.6875,-17.578125,0.0
7857.835248833,-32.71484375,-43.45703125,-60.05859375,-11.71875,0.0
7857.839155083,-33.203125,-41.9921875,-35.15625,-7.32421875,0.0
7857.843061333,-28.80859375,-36.1328125,-22.94921875,-3.41796875,0.0
7857.846967583,-25.390625,-38.0859375,-50.78125,0.48828125,0.0
7857.850873833,-25.87890625,-45.41015625,-72.265625,0.48828125,0.0
7857.854780083,-20.5078125,-42.48046875,-45.8984375,1.953125,0.0
7857.858686333,-4.39453125,-43.45703125,-2.44140625,2.9296875,0.0
7857.862592583,-10.25390625,-41.50390625,-10.25390625,2.44140625,0.0
7857.866498833,-25.87890625,-38.57421875,-69.3359375,3.41796875,0.0
7857.870405083,-24.90234375,-41.015625,-54.19921875,-10.25390625,0.0
7857.874311333,-11.71875,-41.50390625,-7.8125,-19.53125,0.0
7857.877861166,0.48828125,-37.59765625,-22.4609375,-8.30078125,0.0
7857.881767416,-8.30078125,-33.203125,-52.24609375,-2.9296875,0.0
7857.885673666,-24.4140625,-36.1328125,-26.3671875,-3.41796875,0.0
7857.889579916,-21.484375,-36.62109375,2.44140625,-1.953125,0.0
7857.893486166,-16.6015625,-38.0859375,-15.625,-1.953125,0.0
7857.897392416,-10.25390625,-34.1796875,-62.01171875,-2.9296875,0.0
7857.901298666,-16.11328125,-28.3203125,-36.1328125,0.9765625,0.0
7857.905204916,-28.80859375,-31.73828125,12.20703125,-4.8828125,0.0
7857.909111166,-29.296875,-34.66796875,-23.4375,-4.39453125,0.0
7857.913017416,-24.4140625,-38.0859375,-28.80859375,-8.30078125,0.0
7857.916923666,-21.97265625,-39.55078125,-19.53125,-13.18359375,0.0
7857.920829916,-12.6953125,-41.50390625,-21.484375,-11.23046875,0.0
7857.920028333,-12.6953125,-44.43359375,-32.71484375,-19.53125,0.0
7857.923934583,-21.97265625,-40.52734375,-30.2734375,-19.04296875,0.0
7857.927840833,-20.5078125,-38.57421875,-34.1796875,-16.11328125,0.0
7857.931747083,-22.94921875,-40.0390625,-20.5078125,-19.53125,0.0
7857.935653333,-16.11328125,-36.1328125,-22.4609375,-13.18359375,0.0
7857.939559583,-14.16015625,-34.66796875,-39.55078125,-4.39453125,0.0
7857.943465833,-23.92578125,-39.0625,-45.41015625,-7.8125,0.0
7857.947372083,-28.80859375,-45.8984375,-33.203125,-11.23046875,0.0
7857.951278333,-23.92578125,-47.8515625,-19.53125,-5.859375,0.0
7857.955184583,-21.484375,-48.33984375,-23.92578125,-3.90625,0.0
7857.959090833,-25.87890625,-44.43359375,-3.90625,-9.27734375,0.0
7857.962997083,-22.4609375,-33.203125,-27.34375,-10.25390625,0.0
7857.963813625,-20.5078125,-33.203125,-39.0625,-14.16015625,0.0
7857.967719875,-19.53125,-37.59765625,-25.87890625,-21.97265625,0.0
7857.971626125,-23.4375,-34.1796875,-17.08984375,-12.6953125,0.0
7857.975532375,-20.5078125,-31.73828125,-44.921875,-2.44140625,0.0
7857.979438625,-22.4609375,-41.50390625,-36.62109375,-3.41796875,0.0
7857.983344875,-35.64453125,-43.9453125,-13.18359375,-7.8125,0.0
7857.987251125,-41.015625,-44.43359375,-7.8125,-18.06640625,0.0
7857.991157375,-39.0625,-43.9453125,-41.9921875,-21.484375,0.0
7857.995063625,-37.59765625,-44.43359375,-78.125,-10.7421875,0.0
7857.998969875,-35.15625,-42.96875,-38.0859375,-7.8125,0.0
7858.002876125,-26.85546875,-39.0625,-1.46484375,-7.8125,0.0
7858.006782375,-16.6015625,-38.57421875,-56.640625,0.9765625,0.0
7858.008909541,-21.97265625,-38.0859375,-50.78125,-5.859375,0.0
7858.012815791,-23.92578125,-36.62109375,-7.32421875,-13.671875,0.0
7858.016722041,-8.30078125,-39.55078125,-18.06640625,-14.6484375,0.0
7858.020628291,-2.44140625,-39.55078125,-46.38671875,-21.484375,0.0
7858.024534541,-10.25390625,-38.57421875,-52.24609375,-17.578125,0.0
7858.028440791,-13.18359375,-42.48046875,-24.4140625,-7.32421875,0.0
7858.032347041,-13.18359375,-42.96875,-15.13671875,-2.44140625,0.0
7858.036253291,-21.97265625,-40.0390625,-46.38671875,-2.44140625,0.0
7858.040159541,-21.484375,-38.57421875,-50.29296875,-3.41796875,0.0
7858.044065791,-19.04296875,-40.0390625,9.765625,-9.27734375,0.0
7858.047972041,-14.16015625,-42.96875,-10.7421875,-4.8828125,0.0
7858.051878291,-6.34765625,-39.0625,-37.59765625,5.37109375,0.0
7858.054056416,-5.37109375,-28.3203125,-28.80859375,5.37109375,0.0
7858.057962666,-11.71875,-28.80859375,-14.6484375,-1.953125,0.0
7858.061868916,-14.6484375,-38.0859375,-20.01953125,-10.25390625,0.0
7858.065775166,-9.765625,-41.50390625,33.203125,-6.34765625,0.0
7858.069681416,-8.30078125,-45.41015625,38.57421875,-3.90625,0.0
7858.073587666,-22.94921875,-47.8515625,-16.6015625,-2.9296875,0.0
7858.077493916,-29.78515625,-45.41015625,-8.7890625,-7.32421875,0.0
7858.081400166,-18.06640625,-46.38671875,-31.25,3.41796875,0.0
7858.085306416,-14.16015625,-45.41015625,-31.73828125,12.20703125,0.0
7858.089212666,-14.16015625,-39.0625,-8.7890625,-2.44140625,0.0
7858.093118916,-14.16015625,-44.43359375,-19.04296875,-13.18359375,0.0
7858.097025166,-11.23046875,-50.78125,-13.18359375,-7.32421875,0.0
7858.097396958,-3.41796875,-40.52734375,25.87890625,3.41796875,0.0
7858.101303208,-10.25390625,-36.1328125,1.46484375,-1.46484375,0.0
7858.105209458,-22.4609375,-39.55078125,-24.90234375,-13.671875,0.0
7858.109115708,-24.4140625,-39.55078125,-22.4609375,-12.6953125,0.0
7858.113021958,-22.4609375,-41.015625,-20.99609375,1.46484375,0.0
7858.116928208,-17.578125,-41.50390625,-50.78125,-5.37109375,0.0
7858.120834458,-14.6484375,-45.41015625,-50.78125,-19.04296875,0.0
7858.124740708,-20.99609375,-46.875,-17.578125,-11.23046875,0.0
7858.128646958,-22.4609375,-43.45703125,16.11328125,-17.08984375,0.0
7858.132553208,-20.01953125,-44.921875,-20.99609375,-22.94921875,0.0
7858.136459458,-22.94921875,-41.9921875,-56.640625,-15.625,0.0
7858.140365708,-13.18359375,-34.66796875,-47.8515625,-19.04296875,0.0
7858.143039,-12.6953125,-34.1796875,-5.37109375,-13.671875,0.0
7858.14694525,-17.08984375,-34.1796875,-15.13671875,-6.8359375,0.0
7858.1508515,-20.99609375,-38.57421875,-53.22265625,-15.625,0.0
7858.15475775,-23.92578125,-38.57421875,-17.578125,-17.08984375,0.0
7858.158664,-19.53125,-37.109375,-20.5078125,-12.20703125,0.0
7858.16257025,-18.5546875,-42.48046875,-41.015625,-15.13671875,0.0
7858.1664765,-25.87890625,-44.921875,-80.56640625,-11.23046875,0.0
7858.17038275,-34.1796875,-46.875,-41.015625,-6.8359375,0.0
7858.174289,-30.2734375,-50.29296875,7.32421875,-14.6484375,0.0
7858.17819525,-33.203125,-49.8046875,-35.15625,-16.11328125,0.0
7858.1821015,-33.69140625,-42.48046875,-38.57421875,-14.6484375,0.0
7858.18600775,-30.2734375,-32.2265625,-21.484375,-9.765625,0.0
7858.21605275,-23.92578125,-36.62109375,-20.5078125,-5.859375,0.0
7858.219959,-16.6015625,-41.9921875,-36.1328125,-10.7421875,0.0
7858.22386525,-20.01953125,-40.52734375,-41.50390625,-7.32421875,0.0
7858.2277715,-27.34375,-42.96875,-22.94921875,-2.44140625,0.0
7858.23167775,-28.80859375,-45.41015625,-20.5078125,-15.13671875,0.0
7858.235584,-35.64453125,-47.36328125,-46.38671875,-20.5078125,0.0
7858.23949025,-38.0859375,-48.828125,-46.875,-13.18359375,0.0
7858.2433965,-37.109375,-40.52734375,0.48828125,-12.6953125,0.0
7858.24730275,-38.57421875,-39.0625,5.37109375,-15.625,0.0
7858.251209,-28.3203125,-44.43359375,-26.85546875,-19.53125,0.0
7858.25511525,-18.06640625,-44.43359375,-25.87890625,-17.578125,0.0
7858.2590215,-20.99609375,-41.50390625,-20.99609375,-10.25390625,0.0
7858.26146575,-24.90234375,-37.109375,-13.671875,-15.625,0.0
7858.265372,-32.71484375,-33.69140625,-21.484375,-15.13671875,0.0
7858.26927825,-33.69140625,-38.0859375,-28.3203125,-11.71875,0.0
7858.2731845,-31.25,-39.0625,-40.0390625,-7.32421875,0.0
7858.27709075,-29.78515625,-39.0625,-49.31640625,-2.9296875,0.0
7858.280997,-9.765625,-38.57421875,-32.2265625,-3.41796875,0.0
7858.28490325,-6.8359375,-30.2734375,-12.20703125,-6.34765625,0.0
7858.2888095,-23.92578125,-26.3671875,0.48828125,-7.8125,0.0
7858.29271575,-27.83203125,-37.109375,-15.13671875,-12.20703125,0.0
7858.296622,-24.90234375,-41.50390625,-48.828125,-21.97265625,0.0
7858.30052825,-34.1796875,-38.57421875,-9.27734375,-27.34375,0.0
7858.3044345,-30.76171875,-37.59765625,13.18359375,-28.80859375,0.0
7858.310652,-27.83203125,-41.50390625,-33.69140625,-24.4140625,0.0
7858.31455825,-34.66796875,-44.43359375,-14.16015625,-19.53125,0.0
7858.3184645,-24.4140625,-45.41015625,-3.90625,-16.11328125,0.0
7858.32237075,-14.16015625,-44.43359375,-13.671875,-26.85546875,0.0
7858.326277,-24.4140625,-41.015625,-38.0859375,-32.71484375,0.0
7858.33018325,-32.71484375,-37.109375,-24.90234375,-22.4609375,0.0
7858.3340895,-31.25,-40.0390625,3.41796875,-26.85546875,0.0
7858.33799575,-29.78515625,-43.45703125,-5.37109375,-32.2265625,0.0
7858.341902,-29.78515625,-44.43359375,-39.0625,-24.90234375,0.0
7858.34580825,-42.96875,-49.8046875,-33.203125,-19.04296875,0.0
7858.3497145,-27.83203125,-43.45703125,16.11328125,-17.578125,0.0
7858.35362075,-11.23046875,-42.48046875,-8.30078125,-24.4140625,0.0
7858.356765041,-30.2734375,-45.8984375,-40.0390625,-28.3203125,0.0
7858.360671291,-46.875,-45.41015625,-41.9921875,-19.04296875,0.0
7858.364577541,-49.8046875,-53.22265625,-25.87890625,-16.6015625,0.0
7858.368483791,-46.875,-56.640625,-39.55078125,-21.484375,0.0
7858.372390041,-45.41015625,-52.734375,-57.6171875,-16.11328125,0.0
7858.376296291,-42.96875,-51.7578125,-61.5234375,-17.578125,0.0
7858.380202541,-40.52734375,-53.7109375,-26.3671875,-28.80859375,0.0
7858.384108791,-41.015625,-55.6640625,-14.16015625,-29.78515625,0.0
7858.388015041,-41.015625,-53.22265625,-62.5,-9.765625,0.0
7858.391921291,-39.55078125,-42.96875,-37.109375,6.34765625,0.0
7858.395827541,-32.71484375,-39.0625,2.44140625,0.48828125,0.0
7858.399733791,-30.2734375,-47.36328125,-17.578125,-13.671875,0.0
7858.402968125,-41.015625,-52.24609375,-16.6015625,-28.80859375,0.0
7858.406874375,-43.9453125,-49.31640625,-21.484375,-29.78515625,0.0
7858.410780625,-44.43359375,-49.8046875,-31.25,-22.4609375,0.0
7858.414686875,-39.55078125,-47.8515625,-25.390625,-25.390625,0.0
7858.418593125,-27.83203125,-44.43359375,-35.15625,-24.90234375,0.0
7858.422499375,-24.4140625,-44.43359375,-24.90234375,-36.62109375,0.0
7858.426405625,-31.73828125,-44.921875,-22.4609375,-36.62109375,0.0
7858.430311875,-33.203125,-49.8046875,-37.109375,-28.3203125,0.0
7858.434218125,-38.0859375,-55.17578125,-22.94921875,-27.34375,0.0
7858.438124375,-46.875,-46.38671875,2.44140625,-23.4375,0.0
7858.442030625,-51.7578125,-38.0859375,-29.78515625,-24.4140625,0.0
7858.445936875,-49.8046875,-42.48046875,-48.33984375,-28.3203125,0.0
7858.468634541,-46.875,-45.8984375,-47.36328125,-27.34375,0.0
7858.451394916,-48.33984375,-48.33984375,-20.99609375,-23.4375,0.0
7858.455301166,-56.640625,-50.78125,-38.57421875,-22.94921875,0.0
7858.459207416,-61.5234375,-51.26953125,-60.05859375,-24.4140625,0.0
7858.463113666,-47.8515625,-48.33984375,-42.48046875,-18.06640625,0.0
7858.467019916,-33.69140625,-40.0390625,-35.64453125,-8.30078125,0.0
7858.470926166,-28.3203125,-38.0859375,-43.45703125,-9.27734375,0.0
7858.474832416,-24.90234375,-40.0390625,-80.078125,-11.23046875,0.0
7858.478738666,-29.296875,-41.50390625,-47.36328125,-17.08984375,0.0
7858.482644916,-25.390625,-47.36328125,-8.7890625,-16.11328125,0.0
7858.486551166,-30.2734375,-55.6640625,-47.36328125,-7.8125,0.0
7858.490457416,-24.4140625,-54.6875,-43.9453125,-8.7890625,0.0
7858.513530416,-22.4609375,-51.7578125,-23.4375,-18.5546875,0.0
7858.499418125,-28.80859375,-47.8515625,-26.85546875,-22.4609375,0.0
7858.503324375,-18.06640625,-43.9453125,-39.0625,-14.6484375,0.0
7858.507230625,-16.6015625,-45.41015625,-55.17578125,-13.18359375,0.0
7858.511136875,-19.53125,-49.31640625,-38.0859375,-15.625,0.0
7858.515043125,-11.23046875,-49.31640625,-42.96875,-9.765625,0.0
7858.518949375,-14.6484375,-49.31640625,-45.41015625,-3.41796875,0.0
7858.522855625,-33.69140625,-52.734375,-51.7578125,-4.39453125,0.0
7858.526761875,-40.52734375,-54.6875,-12.6953125,-9.765625,0.0
7858.530668125,-29.296875,-52.734375,-25.390625,-15.625,0.0
7858.534574375,-15.13671875,-49.31640625,-61.5234375,-10.7421875,0.0
7858.538480625,-9.27734375,-41.9921875,-51.7578125,0.0,0.0
7858.559372291,-5.37109375,-34.66796875,-39.0625,8.30078125,0.0
7858.541318125,-10.7421875,-36.1328125,-31.25,10.25390625,0.0
7858.545224375,-18.5546875,-46.38671875,-40.0390625,-1.953125,0.0
7858.549130625,-13.18359375,-46.875,-23.92578125,-5.37109375,0.0
7858.553036875,-10.7421875,-42.96875,-41.9921875,-8.7890625,0.0
7858.556943125,-20.99609375,-47.36328125,-46.38671875,-22.94921875,0.0
7858.560849375,-30.76171875,-52.24609375,-56.640625,-15.625,0.0
7858.564755625,-30.2734375,-50.78125,-41.015625,-11.71875,0.0
7858.568661875,-26.3671875,-43.9453125,-16.6015625,-8.30078125,0.0
7858.572568125,-27.83203125,-45.8984375,-41.50390625,2.44140625,0.0
7858.576474375,-18.06640625,-46.38671875,-22.4609375,-1.953125,0.0
7858.580380625,-16.11328125,-41.015625,-3.41796875,-16.11328125,0.0
7858.5782315,-20.01953125,-38.0859375,-26.3671875,-15.625,0.0
7858.58213775,-17.08984375,-38.0859375,-45.41015625,-9.765625,0.0
7858.586044,-7.8125,-35.64453125,-37.109375,-9.765625,0.0
7858.58995025,5.859375,-33.203125,-13.671875,-14.6484375,0.0
7858.5938565,-4.39453125,-41.015625,-30.2734375,-13.671875,0.0
7858.59776275,-23.92578125,-43.45703125,-60.546875,-3.90625,0.0
7858.601669,-18.5546875,-41.015625,-38.0859375,-12.20703125,0.0
7858.60557525,-11.23046875,-40.0390625,4.8828125,-11.23046875,0.0
7858.6094815,-12.6953125,-38.0859375,-7.32421875,-6.8359375,0.0
7858.61338775,-13.18359375,-39.0625,-53.22265625,-4.8828125,0.0
7858.617294,-9.765625,-35.15625,-27.83203125,-4.8828125,0.0
7858.62120025,-0.48828125,-35.15625,-4.39453125,-6.8359375,0.0
7858.624178666,-9.765625,-38.0859375,-27.34375,-3.90625,0.0
7858.628084916,-26.3671875,-38.57421875,-58.10546875,6.8359375,0.0
7858.631991166,-28.3203125,-38.0859375,-33.69140625,13.18359375,0.0
7858.635897416,-29.296875,-41.50390625,-4.39453125,1.953125,0.0
7858.639803666,-18.06640625,-45.41015625,-30.76171875,-10.7421875,0.0
7858.643709916,-18.5546875,-47.36328125,-78.61328125,-16.11328125,0.0
7858.647616166,-34.66796875,-45.41015625,-43.9453125,-14.6484375,0.0
7858.651522416,-35.15625,-41.015625,4.39453125,-13.18359375,0.0
7858.655428666,-25.390625,-39.0625,-27.34375,-8.30078125,0.0
7858.659334916,-21.484375,-41.9921875,-46.38671875,-7.8125,0.0
7858.663241166,-27.34375,-41.50390625,-18.5546875,-7.32421875,0.0
7858.667147416,-24.4140625,-41.9921875,-7.32421875,-4.39453125,0.0
7858.693219333,-23.4375,-45.8984375,-21.484375,-0.9765625,0.0
7858.697125583,-28.80859375,-42.48046875,-15.625,-5.859375,0.0
7858.701031833,-31.73828125,-41.015625,-24.90234375,-20.5078125,0.0
7858.704938083,-30.2734375,-47.8515625,-20.99609375,-23.92578125,0.0
7858.708844333,-27.83203125,-49.8046875,-30.76171875,-31.25,0.0
7858.712750583,-28.80859375,-45.8984375,-46.875,-36.62109375,0.0
7858.716656833,-21.97265625,-46.38671875,-36.62109375,-29.296875,0.0
7858.720563083,-24.4140625,-44.921875,-14.16015625,-16.11328125,0.0
7858.724469333,-20.01953125,-38.57421875,-23.4375,-12.20703125,0.0
7858.728375583,-14.6484375,-39.55078125,-17.08984375,-7.32421875,0.0
7858.732281833,-20.5078125,-43.45703125,0.48828125,-10.7421875,0.0
7858.736188083,-23.4375,-47.8515625,-32.71484375,-23.92578125,0.0
7858.713493708,-20.01953125,-52.24609375,-31.25,-20.5078125,0.0
7858.717399958,-16.6015625,-49.31640625,-35.64453125,-13.671875,0.0
7858.721306208,-19.04296875,-45.8984375,-26.3671875,-13.18359375,0.0
7858.725212458,-14.16015625,-43.9453125,-23.92578125,-7.32421875,0.0
7858.729118708,-23.4375,-41.9921875,-42.48046875,-3.90625,0.0
7858.733024958,-34.1796875,-39.0625,-33.69140625,-8.30078125,0.0
7858.736931208,-31.73828125,-38.57421875,-11.23046875,-10.25390625,0.0
7858.740837458,-25.390625,-36.1328125,-23.4375,-0.48828125,0.0
7858.744743708,-19.04296875,-33.203125,-41.015625,8.7890625,0.0
7858.748649958,-25.390625,-41.50390625,-2.44140625,-0.9765625,0.0
7858.752556208,-22.4609375,-44.921875,20.99609375,-15.13671875,0.0
7858.756462458,-19.04296875,-43.45703125,-29.78515625,-15.13671875,0.0
7858.798189458,-31.25,-44.921875,-19.04296875,-17.08984375,0.0
7858.784234666,-31.25,-39.55078125,15.13671875,-20.5078125,0.0
7858.788140916,-26.3671875,-37.59765625,-2.9296875,-18.06640625,0.0
7858.792047166,-19.04296875,-44.43359375,-31.73828125,-15.625,0.0
7858.795953416,-13.671875,-45.8984375,-44.921875,-6.8359375,0.0
7858.799859666,-9.27734375,-41.9921875,-12.20703125,-10.25390625,0.0
7858.803765916,-8.7890625,-39.55078125,-5.859375,-23.92578125,0.0
7858.807672166,-20.99609375,-47.36328125,-30.2734375,-34.66796875,0.0
7858.811578416,-27.83203125,-47.36328125,-33.69140625,-18.06640625,0.0
7858.815484666,-21.484375,-41.015625,25.390625,-11.71875,0.0
7858.819390916,-21.97265625,-42.48046875,3.41796875,-20.99609375,0.0
7858.823297166,-39.55078125,-45.41015625,-37.59765625,-22.94921875,0.0
7858.846035833,-40.52734375,-41.9921875,-43.9453125,-30.2734375,0.0
7858.828612416,-30.76171875,-44.43359375,-22.4609375,-23.4375,0.0
7858.832518666,-23.92578125,-49.8046875,-14.6484375,-28.3203125,0.0
7858.836424916,-17.578125,-46.875,-23.92578125,-38.0859375,0.0
7858.840331166,-12.6953125,-42.48046875,-32.2265625,-26.85546875,0.0
7858.844237416,-26.3671875,-39.0625,-35.15625,-16.11328125,0.0
7858.848143666,-36.1328125,-38.57421875,-9.765625,-18.5546875,0.0
7858.852049916,-30.76171875,-42.48046875,-53.22265625,-22.94921875,0.0
7858.855956166,-34.1796875,-46.38671875,-48.828125,-21.484375,0.0
7858.859862416,-43.45703125,-46.875,-8.30078125,-23.92578125,0.0
7858.863768666,-42.48046875,-40.52734375,-30.76171875,-33.203125,0.0
7858.867674916,-36.62109375,-43.45703125,-21.484375,-34.1796875,0.0
7858.888530791,-30.2734375,-50.78125,-7.32421875,-19.53125,0.0
7858.871023625,-28.3203125,-45.41015625,-32.2265625,-12.6953125,0.0
7858.874929875,-31.25,-39.0625,-41.50390625,-14.16015625,0.0
7858.878836125,-27.83203125,-39.0625,-38.57421875,-18.5546875,0.0
7858.882742375,-26.85546875,-34.1796875,-28.3203125,-25.390625,0.0
7858.886648625,-26.85546875,-30.76171875,-38.57421875,-20.5078125,0.0
7858.890554875,-31.25,-36.62109375,-40.0390625,-13.18359375,0.0
7858.894461125,-24.90234375,-34.66796875,-31.73828125,-12.20703125,0.0
7858.898367375,-17.08984375,-28.3203125,32.2265625,-9.765625,0.0
7858.902273625,-24.90234375,-29.78515625,1.953125,-7.32421875,0.0
7858.906179875,-20.99609375,-31.73828125,-61.03515625,-25.390625,0.0
7858.910086125,-9.27734375,-27.34375,-18.06640625,-22.94921875,0.0
7858.910373541,-11.23046875,-30.76171875,-0.9765625,-11.71875,0.0
7858.914279791,-16.6015625,-40.52734375,-28.3203125,-14.16015625,0.0
7858.918186041,-33.69140625,-41.015625,-45.8984375,-5.37109375,0.0
7858.922092291,-33.203125,-34.1796875,-15.625,-1.953125,0.0
7858.925998541,-21.97265625,-29.78515625,-17.578125,-1.46484375,0.0
7858.929904791,-16.6015625,-31.25,-33.69140625,-3.90625,0.0
7858.933811041,-7.32421875,-33.203125,-64.94140625,8.30078125,0.0
7858.937717291,-1.953125,-34.66796875,-21.97265625,19.04296875,0.0
7858.941623541,-11.71875,-36.1328125,32.71484375,7.8125,0.0
7858.945529791,-21.484375,-41.015625,-16.6015625,-5.37109375,0.0
7858.949436041,-18.5546875,-41.015625,-28.80859375,-14.6484375,0.0
7858.953342291,-27.83203125,-42.48046875,-12.6953125,-16.6015625,0.0
7858.957007083,-30.76171875,-46.38671875,-18.5546875,-25.87890625,0.0
7858.960913333,-27.34375,-44.921875,-24.90234375,-29.296875,0.0
7858.964819583,-28.80859375,-45.41015625,-30.2734375,-28.3203125,0.0
7858.968725833,-19.04296875,-49.31640625,-22.94921875,-25.87890625,0.0
7858.972632083,-20.01953125,-49.31640625,-17.08984375,-14.6484375,0.0
7858.976538333,-19.04296875,-49.8046875,-35.15625,-5.37109375,0.0
7858.980444583,-11.23046875,-44.921875,-27.83203125,4.8828125,0.0
7858.984350833,-20.5078125,-37.59765625,1.953125,9.27734375,0.0
7858.988257083,-33.203125,-40.0390625,-0.48828125,8.30078125,0.0
7858.992163333,-40.52734375,-42.96875,-34.1796875,1.953125,0.0
7858.996069583,-33.203125,-39.55078125,-27.83203125,-2.9296875,0.0
7858.999975833,-31.73828125,-37.109375,-19.53125,-11.23046875,0.0
7858.998677125,-34.66796875,-43.9453125,-28.80859375,-28.80859375,0.0
7859.002583375,-19.04296875,-44.921875,-34.66796875,-26.3671875,0.0
7859.006489625,-8.30078125,-40.52734375,-21.484375,-14.6484375,0.0
7859.010395875,-13.671875,-41.9921875,-26.3671875,-16.6015625,0.0
7859.014302125,-9.27734375,-47.36328125,-41.9921875,-23.92578125,0.0
7859.018208375,-15.13671875,-49.8046875,-67.87109375,-16.6015625,0.0
7859.022114625,-33.203125,-47.36328125,-39.55078125,-12.20703125,0.0
7859.026020875,-34.66796875,-46.38671875,-7.8125,-21.97265625,0.0
7859.029927125,-22.94921875,-44.43359375,-41.015625,-21.484375,0.0
7859.033833375,-20.5078125,-46.875,-19.04296875,-17.578125,0.0
7859.037739625,-30.2734375,-49.31640625,1.46484375,-13.671875,0.0
7859.041645875,-29.78515625,-50.78125,-18.06640625,-3.90625,0.0
7859.042822791,-30.76171875,-50.29296875,-41.50390625,1.953125,0.0
7859.046729041,-34.1796875,-48.828125,-14.6484375,1.953125,0.0
7859.050635291,-28.80859375,-48.33984375,0.48828125,-1.953125,0.0
7859.054541541,-25.390625,-44.43359375,-12.20703125,-8.30078125,0.0
7859.058447791,-29.78515625,-48.828125,-45.8984375,-29.78515625,0.0
7859.062354041,-42.96875,-55.6640625,-54.6875,-32.2265625,0.0
7859.066260291,-48.33984375,-54.6875,-11.23046875,-16.11328125,0.0
7859.070166541,-42.96875,-50.29296875,-10.7421875,-7.32421875,0.0
7859.074072791,-40.0390625,-46.875,-46.38671875,-2.44140625,0.0
7859.077979041,-38.0859375,-47.8515625,-36.62109375,-5.37109375,0.0
7859.081885291,-28.3203125,-41.015625,6.8359375,-12.6953125,0.0
7859.085791541,-20.5078125,-35.15625,-3.41796875,-21.97265625,0.0
7859.125215375,-15.625,-45.41015625,-42.96875,-22.4609375,0.0
7859.129121625,-7.8125,-44.921875,-37.109375,-14.16015625,0.0
7859.117419208,-2.9296875,-38.0859375,-5.37109375,-16.6015625,0.0
7859.121325458,-7.32421875,-40.0390625,-16.11328125,-20.5078125,0.0
7859.125231708,-25.390625,-43.45703125,-33.203125,-20.5078125,0.0
7859.129137958,-43.9453125,-43.45703125,-45.41015625,-11.71875,0.0
7859.133044208,-43.9453125,-50.78125,-16.6015625,-10.7421875,0.0
7859.136950458,-38.0859375,-57.6171875,-18.06640625,-9.765625,0.0
7859.140856708,-23.92578125,-52.24609375,-64.453125,7.8125,0.0
7859.144762958,-28.3203125,-40.52734375,-48.828125,9.765625,0.0
7859.148669208,-30.2734375,-32.71484375,-10.7421875,-2.44140625,0.0
7859.152575458,-19.53125,-37.109375,-27.34375,-12.20703125,0.0
7859.169517541,-22.94921875,-43.9453125,-19.04296875,-5.859375,0.0
7859.173423791,-23.4375,-44.43359375,-19.04296875,-0.48828125,0.0
7859.161880458,-23.4375,-46.875,-38.57421875,-9.27734375,0.0
7859.165786708,-22.4609375,-49.8046875,-32.2265625,-20.01953125,0.0
7859.169692958,-15.13671875,-47.8515625,-44.921875,-15.13671875,0.0
7859.173599208,-11.23046875,-47.8515625,-49.31640625,-11.71875,0.0
7859.177505458,-14.6484375,-51.7578125,-51.26953125,-23.92578125,0.0
7859.181411708,-18.5546875,-51.7578125,-46.875,-28.80859375,0.0
7859.185317958,-14.6484375,-46.38671875,-28.80859375,-17.578125,0.0
7859.189224208,-15.13671875,-40.0390625,2.9296875,-10.25390625,0.0
7859.193130458,-22.94921875,-45.41015625,-41.9921875,-14.6484375,0.0
7859.197036708,-32.2265625,-51.26953125,-53.7109375,-14.16015625,0.0
7859.219975875,-43.9453125,-45.8984375,-17.578125,-10.7421875,0.0
7859.20292275,-46.875,-41.50390625,-13.18359375,-15.13671875,0.0
7859.206829,-41.50390625,-41.50390625,-40.0390625,-18.06640625,0.0
7859.21073525,-38.0859375,-41.9921875,-37.109375,-12.6953125,0.0
7859.2146415,-30.2734375,-41.015625,-2.9296875,-8.7890625,0.0
7859.21854775,-14.16015625,-41.50390625,-20.5078125,-11.71875,0.0
7859.222454,-5.859375,-40.0390625,-29.296875,-15.13671875,0.0
7859.22636025,-16.6015625,-41.9921875,-60.546875,-5.859375,0.0
7859.2302665,-27.34375,-43.45703125,-38.57421875,-1.46484375,0.0
7859.23417275,-27.83203125,-37.109375,4.39453125,-10.7421875,0.0
7859.238079,-27.83203125,-38.57421875,-46.38671875,-16.6015625,0.0
7859.24198525,-27.34375,-41.9921875,-46.875,-20.99609375,0.0
7859.263353458,-25.390625,-45.41015625,-13.18359375,-14.6484375,0.0
7859.2449295,-29.78515625,-46.875,-37.59765625,-1.46484375,0.0
7859.24883575,-29.78515625,-41.50390625,-46.875,-0.48828125,0.0
7859.252742,-24.90234375,-40.52734375,-30.76171875,-15.13671875,0.0
7859.25664825,-22.4609375,-42.48046875,-27.83203125,-25.390625,0.0
7859.2605545,-18.5546875,-39.0625,-34.1796875,-13.671875,0.0
7859.26446075,-19.04296875,-36.62109375,-25.390625,-9.27734375,0.0
7859.268367,-27.34375,-35.15625,-20.5078125,-3.90625,0.0
7859.27227325,-25.87890625,-33.203125,15.13671875,2.9296875,0.0
7859.2761795,-20.99609375,-32.71484375,18.5546875,0.48828125,0.0
7859.28008575,-22.94921875,-36.62109375,-11.23046875,-1.46484375,0.0
7859.283992,-20.99609375,-39.0625,-30.2734375,-2.9296875,0.0
7859.283084208,-15.625,-39.55078125,-21.484375,-4.8828125,0.0
7859.286990458,-16.11328125,-43.45703125,-17.578125,-3.41796875,0.0
7859.290896708,-21.484375,-46.875,-32.2265625,2.9296875,0.0
7859.294802958,-20.99609375,-44.921875,-18.06640625,0.9765625,0.0
7859.298709208,-23.4375,-41.015625,-35.64453125,-2.9296875,0.0
7859.302615458,-26.3671875,-43.9453125,-36.62109375,-8.30078125,0.0
7859.306521708,-31.25,-45.8984375,-51.26953125,-21.484375,0.0
7859.310427958,-35.15625,-46.875,-29.78515625,-31.25,0.0
7859.314334208,-33.69140625,-47.36328125,-21.97265625,-31.25,0.0
7859.318240458,-39.55078125,-45.8984375,-61.5234375,-30.76171875,0.0
7859.322146708,-30.76171875,-43.9453125,-32.71484375,-31.25,0.0
7859.326052958,-16.6015625,-41.9921875,-8.7890625,-29.78515625,0.0
7859.329394458,-12.20703125,-41.50390625,-40.0390625,-13.671875,0.0
7859.333300708,-19.53125,-43.9453125,-68.359375,-7.32421875,0.0
7859.337206958,-20.99609375,-42.96875,-46.875,-19.04296875,0.0
7859.341113208,-24.4140625,-42.96875,-21.484375,-15.625,0.0
7859.345019458,-31.73828125,-55.17578125,-47.8515625,-16.6015625,0.0
7859.348925708,-30.2734375,-56.15234375,-70.3125,-16.6015625,0.0
7859.352831958,-29.296875,-49.8046875,-51.26953125,-13.18359375,0.0
7859.356738208,-27.83203125,-53.7109375,-22.94921875,-20.5078125,0.0
7859.360644458,-18.5546875,-54.6875,-32.2265625,-15.13671875,0.0
7859.364550708,-22.94921875,-51.7578125,-74.70703125,4.8828125,0.0
7859.368456958,-31.25,-47.8515625,-61.5234375,2.44140625,0.0
7859.372363208,-27.83203125,-44.43359375,-30.2734375,-17.578125,0.0
7859.373823375,-25.87890625,-43.9453125,-45.41015625,-24.90234375,0.0
7859.377729625,-25.390625,-42.96875,-81.54296875,-22.4609375,0.0
7859.381635875,-18.06640625,-40.52734375,-58.59375,-15.13671875,0.0
7859.385542125,-2.9296875,-39.0625,-35.64453125,-19.04296875,0.0
7859.389448375,2.44140625,-42.48046875,-53.22265625,-23.4375,0.0
7859.393354625,0.48828125,-46.875,-87.890625,-13.18359375,0.0
7859.397260875,-9.765625,-42.96875,-59.5703125,-9.27734375,0.0
7859.401167125,-19.04296875,-38.57421875,-8.7890625,-11.71875,0.0
7859.405073375,-22.4609375,-36.62109375,-38.0859375,1.953125,0.0
7859.408979625,-19.04296875,-38.57421875,-54.6875,5.37109375,0.0
7859.412885875,-21.97265625,-39.0625,-36.62109375,-6.34765625,0.0
7859.416792125,-17.08984375,-40.52734375,-14.6484375,-5.37109375,0.0
7859.4584155,-12.6953125,-43.9453125,-32.71484375,-1.953125,0.0
7859.443210625,-12.20703125,-44.921875,-31.25,-1.953125,0.0
7859.447116875,-12.6953125,-48.828125,-32.71484375,2.9296875,0.0
7859.451023125,-26.85546875,-43.9453125,-35.15625,-0.48828125,0.0
7859.454929375,-27.34375,-41.015625,-40.52734375,-1.953125,0.0
7859.458835625,-21.484375,-43.9453125,-49.8046875,9.27734375,0.0
7859.462741875,-23.4375,-46.38671875,-55.17578125,9.765625,0.0
7859.466648125,-27.83203125,-48.828125,-28.80859375,6.8359375,0.0
7859.470554375,-22.94921875,-46.875,-28.3203125,1.46484375,0.0
7859.474460625,-12.20703125,-40.52734375,-35.15625,-0.48828125,0.0
7859.478366875,-8.30078125,-37.59765625,-14.6484375,3.41796875,0.0
7859.482273125,-22.94921875,-43.9453125,-49.31640625,-1.953125,0.0
7859.500091958,-36.1328125,-48.33984375,-48.828125,-8.7890625,0.0
7859.503998208,-31.73828125,-51.26953125,-28.80859375,-12.20703125,0.0
7859.493926375,-24.4140625,-51.26953125,-16.11328125,-11.71875,0.0
7859.497832625,-20.5078125,-45.8984375,-39.0625,-6.8359375,0.0
7859.501738875,-17.08984375,-44.921875,-33.69140625,-9.27734375,0.0
7859.505645125,-23.4375,-45.41015625,-16.6015625,-24.4140625,0.0
7859.509551375,-41.9921875,-44.921875,-4.39453125,-22.4609375,0.0
7859.513457625,-41.9921875,-39.0625,-15.625,-23.4375,0.0
7859.517363875,-24.4140625,-37.109375,-62.98828125,-30.2734375,0.0
7859.521270125,-18.5546875,-37.59765625,-24.4140625,-11.71875,0.0
7859.525176375,-22.4609375,-39.55078125,27.83203125,-2.44140625,0.0
7859.529082625,-28.3203125,-45.8984375,-27.34375,-6.34765625,0.0
7859.506411833,-36.1328125,-42.48046875,-35.64453125,-8.30078125,0.0
7859.510318083,-39.55078125,-42.48046875,-3.41796875,-13.18359375,0.0
7859.514224333,-39.55078125,-49.31640625,-23.92578125,-22.4609375,0.0
7859.518130583,-38.0859375,-49.31640625,-42.96875,-22.94921875,0.0
7859.522036833,-33.203125,-46.875,-38.57421875,-17.08984375,0.0
7859.525943083,-24.4140625,-48.33984375,-22.94921875,-22.4609375,0.0
7859.529849333,-15.13671875,-47.36328125,-19.04296875,-22.94921875,0.0
7859.533755583,-16.6015625,-42.96875,-43.45703125,-13.671875,0.0
7859.537661833,-33.203125,-38.57421875,-48.828125,-0.9765625,0.0
7859.541568083,-41.015625,-41.50390625,2.9296875,-9.27734375,0.0
7859.545474333,-32.2265625,-42.48046875,-11.71875,-21.97265625,0.0
7859.549380583,-25.390625,-40.0390625,-45.41015625,-12.6953125,0.0
7859.576643625,-16.6015625,-48.828125,-48.33984375,-12.20703125,0.0
7859.580549875,-15.13671875,-48.828125,-20.99609375,-21.484375,0.0
7859.584456125,-16.6015625,-41.9921875,-35.64453125,-15.625,0.0
7859.588362375,-10.25390625,-46.875,-48.828125,-15.13671875,0.0
7859.592268625,-7.32421875,-45.41015625,-35.64453125,-18.06640625,0.0
7859.596174875,-4.39453125,-38.57421875,-30.76171875,-12.20703125,0.0
7859.600081125,-7.32421875,-42.48046875,-8.30078125,-17.578125,0.0
7859.603987375,-20.5078125,-49.8046875,-44.921875,-25.390625,0.0
7859.607893625,-30.2734375,-46.875,-38.57421875,-17.08984375,0.0
7859.611799875,-21.484375,-42.96875,-11.23046875,-9.27734375,0.0
7859.615706125,-14.16015625,-48.828125,-25.390625,-17.578125,0.0
7859.619612375,-16.11328125,-49.31640625,-7.32421875,-19.04296875,0.0
7859.596992333,-21.97265625,-42.96875,-5.859375,-12.20703125,0.0
7859.600898583,-32.2265625,-42.96875,-32.71484375,-14.16015625,0.0
7859.604804833,-37.59765625,-47.36328125,-39.0625,-11.71875,0.0
7859.608711083,-29.78515625,-46.38671875,-22.4609375,-9.27734375,0.0
7859.612617333,-23.92578125,-40.0390625,-13.18359375,-13.671875,0.0
7859.616523583,-30.2734375,-39.0625,-40.0390625,-14.16015625,0.0
7859.620429833,-39.0625,-46.875,-43.45703125,-16.6015625,0.0
7859.624336083,-35.15625,-46.38671875,-18.5546875,-10.7421875,0.0
7859.628242333,-28.80859375,-44.921875,17.578125,-6.8359375,0.0
7859.632148583,-30.2734375,-45.41015625,-3.90625,-16.6015625,0.0
7859.636054833,-28.80859375,-42.48046875,-50.29296875,-19.53125,0.0
7859.639961083,-14.16015625,-48.828125,-35.64453125,-17.08984375,0.0
7859.668359458,-17.08984375,-41.50390625,-4.39453125,-19.04296875,0.0
7859.672265708,-29.296875,-11.23046875,-24.90234375,-14.6484375,0.0
7859.676171958,-27.34375,0.9765625,-55.17578125,-3.90625,0.0
7859.680078208,-44.921875,-7.8125,-19.04296875,-12.6953125,0.0
7859.683984458,-50.78125,-15.13671875,-9.27734375,-28.3203125,0.0
7859.685839708,-40.52734375,-18.06640625,-31.25,-25.87890625,0.0
7859.689745958,-34.66796875,-22.4609375,-71.2890625,-12.20703125,0.0
7859.693652208,-32.71484375,-20.99609375,-40.0390625,-5.859375,0.0
7859.697558458,-26.3671875,-19.53125,14.16015625,-20.01953125,0.0
7859.701464708,-26.85546875,-26.85546875,-29.78515625,-18.5546875,0.0
7859.705370958,-30.2734375,-28.80859375,-33.203125,-14.16015625,0.0
7859.709277208,-28.3203125,-31.73828125,26.85546875,-20.5078125,0.0
7859.713659041,-25.390625,-34.1796875,66.89453125,-10.7421875,0.0
7859.717565291,-20.99609375,-31.73828125,25.390625,-3.90625,0.0
7859.721471541,-23.4375,-32.2265625,-18.06640625,-13.18359375,0.0
7859.725377791,-37.109375,-35.64453125,-17.578125,-10.25390625,0.0
7859.729284041,-31.73828125,-41.015625,-23.4375,-9.27734375,0.0
7859.733190291,-22.94921875,-40.52734375,-25.390625,-12.6953125,0.0
7859.737096541,-24.90234375,-38.0859375,-31.25,-11.71875,0.0
7859.741002791,-24.90234375,-42.48046875,-15.625,-18.5546875,0.0
7859.744909041,-23.92578125,-42.96875,-13.18359375,-26.3671875,0.0
7859.748815291,-13.671875,-37.59765625,-42.48046875,-18.5546875,0.0
7859.752721541,-12.6953125,-37.109375,-33.69140625,-13.18359375,0.0
7859.756627791,-7.8125,-34.1796875,-26.85546875,-16.11328125,0.0
7859.762378875,-5.859375,-25.390625,-28.3203125,-16.11328125,0.0
7859.766285125,-15.625,-30.76171875,-38.57421875,-26.3671875,0.0
7859.770191375,-20.01953125,-38.0859375,-32.2265625,-32.2265625,0.0
7859.774097625,-20.01953125,-38.0859375,-25.390625,-21.484375,0.0
7859.778003875,-33.203125,-45.8984375,-45.8984375,-10.7421875,0.0
7859.781910125,-48.828125,-49.31640625,-60.05859375,-15.625,0.0
7859.785816375,-41.015625,-46.875,-15.625,-21.484375,0.0
7859.789722625,-26.3671875,-48.33984375,4.8828125,-22.4609375,0.0
7859.793628875,-23.92578125,-45.41015625,-44.43359375,-17.578125,0.0
7859.797535125,-24.4140625,-42.48046875,-30.2734375,-20.99609375,0.0
7859.801441375,-25.87890625,-38.57421875,-8.30078125,-29.78515625,0.0
7859.805347625,-26.3671875,-36.1328125,-16.11328125,-26.3671875,0.0
7859.810348,-37.59765625,-40.52734375,-46.38671875,-19.04296875,0.0
7859.81425425,-42.96875,-46.875,-37.59765625,-17.578125,0.0
7859.8181605,-41.015625,-50.29296875,-13.671875,-21.484375,0.0
7859.82206675,-45.8984375,-53.22265625,-31.25,-22.4609375,0.0
7859.825973,-37.59765625,-53.22265625,-55.17578125,-15.625,0.0
7859.82987925,-30.2734375,-48.828125,-41.015625,-4.39453125,0.0
7859.8337855,-26.85546875,-47.36328125,-26.3671875,-14.6484375,0.0
7859.83769175,-27.34375,-48.33984375,-23.92578125,-23.4375,0.0
7859.841598,-30.2734375,-45.41015625,-44.43359375,-10.7421875,0.0
7859.84550425,-36.62109375,-48.33984375,-40.52734375,-4.8828125,0.0
7859.8494105,-39.55078125,-51.26953125,2.9296875,-16.11328125,0.0
7859.85331675,-37.59765625,-49.8046875,-20.01953125,-18.06640625,0.0
7859.852519625,-40.52734375,-49.31640625,-56.640625,-15.13671875,0.0
7859.856425875,-36.1328125,-49.31640625,-51.7578125,-24.90234375,0.0
7859.860332125,-28.3203125,-47.8515625,-8.30078125,-29.78515625,0.0
7859.864238375,-24.4140625,-52.24609375,-16.11328125,-27.83203125,0.0
7859.868144625,-26.85546875,-50.29296875,-43.45703125,-27.83203125,0.0
7859.872050875,-23.4375,-41.015625,-42.48046875,-24.4140625,0.0
7859.875957125,-28.3203125,-41.015625,-18.5546875,-19.53125,0.0
7859.879863375,-38.57421875,-48.33984375,-14.16015625,-25.390625,0.0
7859.883769625,-34.1796875,-48.828125,-52.734375,-20.99609375,0.0
7859.887675875,-18.5546875,-47.36328125,-42.48046875,-16.6015625,0.0
7859.891582125,-16.11328125,-49.8046875,-1.46484375,-19.53125,0.0
7859.895488375,-20.99609375,-52.24609375,-28.80859375,-12.6953125,0.0
7859.899383208,-28.80859375,-56.640625,-17.08984375,-12.6953125,0.0
7859.903289458,-35.64453125,-56.640625,-17.578125,-11.71875,0.0
7859.907195708,-38.57421875,-51.26953125,-35.64453125,-17.578125,0.0
7859.911101958,-32.2265625,-49.31640625,-23.4375,-22.94921875,0.0
7859.915008208,-28.3203125,-52.734375,-24.4140625,-17.08984375,0.0
7859.918914458,-36.1328125,-51.26953125,-18.06640625,-18.5546875,0.0
7859.922820708,-43.9453125,-44.43359375,-16.6015625,-25.390625,0.0
7859.926726958,-43.45703125,-44.43359375,-6.34765625,-23.4375,0.0
7859.930633208,-36.1328125,-43.9453125,18.5546875,-8.30078125,0.0
7859.934539458,-27.34375,-38.0859375,30.76171875,-8.30078125,0.0
7859.938445708,-23.4375,-34.66796875,-11.23046875,-9.765625,0.0
7859.942351958,-22.94921875,-33.203125,-29.78515625,-13.671875,0.0
7859.945317541,-20.01953125,-37.59765625,-14.16015625,-20.5078125,0.0
7859.949223791,-17.08984375,-47.8515625,-2.44140625,-22.94921875,0.0
7859.953130041,-6.34765625,-48.828125,-25.87890625,-20.5078125,0.0
7859.957036291,-14.16015625,-46.875,-22.4609375,-18.5546875,0.0
7859.960942541,-28.3203125,-49.31640625,-4.39453125,-22.4609375,0.0
7859.964848791,-12.20703125,-46.875,-14.6484375,-15.625,0.0
7859.968755041,-9.765625,-44.43359375,-21.97265625,-12.20703125,0.0
7859.972661291,-17.578125,-44.921875,-55.6640625,-11.71875,0.0
7859.976567541,-26.3671875,-48.33984375,-14.6484375,-20.5078125,0.0
7859.980473791,-43.45703125,-51.7578125,27.83203125,-28.3203125,0.0
7859.984380041,-49.8046875,-49.8046875,-11.23046875,-20.01953125,0.0
7859.988286291,-43.45703125,-53.22265625,-29.296875,-16.11328125,0.0
7859.995429916,-41.9921875,-52.734375,-4.8828125,-20.5078125,0.0
7859.999336166,-41.015625,-46.38671875,6.8359375,-25.87890625,0.0
7860.003242416,-38.57421875,-50.29296875,-22.4609375,-25.87890625,0.0
7860.007148666,-45.8984375,-55.17578125,-42.96875,-27.83203125,0.0
7860.011054916,-43.9453125,-52.24609375,-31.25,-27.34375,0.0
7860.014961166,-38.0859375,-49.31640625,-23.92578125,-21.484375,0.0
7860.018867416,-31.73828125,-49.31640625,-35.15625,-12.6953125,0.0
7860.022773666,-32.2265625,-46.875,-39.0625,3.41796875,0.0
7860.026679916,-42.96875,-45.41015625,-1.953125,-3.41796875,0.0
7860.030586166,-38.0859375,-50.78125,-8.30078125,-27.34375,0.0
7860.034492416,-25.390625,-51.26953125,-35.64453125,-25.390625,0.0
7860.038398666,-20.01953125,-42.96875,-42.48046875,-18.5546875,0.0
7860.01553775,-33.69140625,-45.41015625,-29.78515625,-18.5546875,0.0
7860.019444,-38.57421875,-47.8515625,-16.11328125,-18.06640625,0.0
7860.02335025,-27.34375,-46.38671875,-27.34375,-22.94921875,0.0
7860.0272565,-19.04296875,-47.8515625,-19.53125,-23.92578125,0.0
7860.03116275,-21.97265625,-45.8984375,-28.3203125,-17.08984375,0.0
7860.035069,-34.66796875,-48.33984375,-23.4375,-14.16015625,0.0
7860.03897525,-34.66796875,-55.17578125,-53.7109375,-20.5078125,0.0
7860.0428815,-36.62109375,-50.29296875,-43.9453125,-20.01953125,0.0
7860.04678775,-38.57421875,-43.45703125,0.48828125,-17.578125,0.0
7860.050694,-37.109375,-48.33984375,-30.76171875,-9.27734375,0.0
7860.05460025,-38.0859375,-56.15234375,-21.484375,-17.578125,0.0
7860.0585065,-36.62109375,-56.640625,3.41796875,-28.3203125,0.0
7860.104605583,-28.80859375,-49.8046875,14.6484375,-13.671875,0.0
7860.090548666,-20.99609375,-46.875,-3.41796875,-2.44140625,0.0
7860.094454916,-26.3671875,-45.41015625,2.9296875,-7.8125,0.0
7860.098361166,-28.3203125,-49.31640625,11.23046875,-16.11328125,0.0
7860.102267416,-24.4140625,-53.7109375,-26.85546875,-13.18359375,0.0
7860.106173666,-20.5078125,-48.33984375,-50.29296875,-1.953125,0.0
7860.110079916,-17.08984375,-54.19921875,-27.83203125,-5.37109375,0.0
7860.113986166,-12.20703125,-55.17578125,10.25390625,-9.765625,0.0
7860.117892416,-8.7890625,-48.828125,10.7421875,-7.8125,0.0
7860.121798666,-25.390625,-45.8984375,-32.2265625,4.39453125,0.0
7860.125704916,-40.52734375,-44.921875,-23.4375,11.71875,0.0
7860.129611166,-35.15625,-45.8984375,-0.9765625,-4.8828125,0.0
7860.134522,-23.92578125,-45.8984375,-12.6953125,-22.4609375,0.0
7860.13842825,-20.99609375,-47.36328125,-38.0859375,-18.5546875,0.0
7860.1423345,-21.97265625,-43.9453125,-29.296875,-7.8125,0.0
7860.14624075,-25.390625,-40.52734375,-10.25390625,-13.671875,0.0
7860.150147,-25.87890625,-46.875,-28.80859375,-18.5546875,0.0
7860.15405325,-25.390625,-49.8046875,-77.63671875,-16.11328125,0.0
7860.1579595,-26.85546875,-46.875,-41.50390625,-7.8125,0.0
7860.16186575,-23.92578125,-44.921875,10.7421875,-10.7421875,0.0
7860.165772,-24.90234375,-47.36328125,-38.57421875,-15.13671875,0.0
7860.16967825,-40.52734375,-55.6640625,-39.55078125,-17.578125,0.0
7860.1735845,-44.921875,-57.6171875,-37.59765625,-30.2734375,0.0
7860.17749075,-42.48046875,-51.7578125,-37.59765625,-37.109375,0.0
7860.18301125,-46.38671875,-53.7109375,-53.7109375,-39.0625,0.0
7860.1869175,-47.36328125,-56.15234375,-36.62109375,-42.48046875,0.0
7860.19082375,-48.828125,-50.78125,-10.7421875,-35.15625,0.0
7860.19473,-54.6875,-52.24609375,-3.90625,-29.296875,0.0
7860.19863625,-39.0625,-51.7578125,-11.23046875,-32.71484375,0.0
7860.2025425,-13.671875,-48.828125,-19.04296875,-25.390625,0.0
7860.20644875,-15.625,-53.7109375,-10.25390625,-22.94921875,0.0
7860.210355,-22.94921875,-51.7578125,24.90234375,-27.34375,0.0
7860.21426125,-33.69140625,-50.29296875,12.20703125,-22.4609375,0.0
7860.2181675,-36.1328125,-54.19921875,-14.6484375,-18.5546875,0.0
7860.22207375,-30.2734375,-49.31640625,-6.8359375,-21.484375,0.0
7860.22598,-23.92578125,-46.875,-17.578125,-18.06640625,0.0
7860.230397458,-18.5546875,-46.38671875,-16.6015625,-19.04296875,0.0
7860.234303708,-23.92578125,-41.50390625,-32.71484375,-15.13671875,0.0
7860.238209958,-22.4609375,-36.62109375,-45.8984375,-11.23046875,0.0
7860.242116208,-13.18359375,-40.52734375,-70.80078125,-17.08984375,0.0
7860.246022458,-15.13671875,-42.96875,-61.5234375,-23.4375,0.0
7860.249928708,-21.484375,-42.96875,-53.7109375,-24.4140625,0.0
7860.253834958,-26.85546875,-49.31640625,-43.45703125,-18.06640625,0.0
7860.257741208,-41.50390625,-54.19921875,-63.96484375,-14.6484375,0.0
7860.261647458,-47.36328125,-48.33984375,-105.95703125,-10.7421875,0.0
7860.265553708,-41.9921875,-39.0625,-58.59375,-15.625,0.0
7860.269459958,-37.59765625,-37.109375,-26.85546875,-20.99609375,0.0
7860.273366208,-34.66796875,-36.1328125,-81.54296875,-15.625,0.0
7860.273720375,-43.45703125,-38.0859375,-72.75390625,-20.99609375,0.0
7860.277626625,-40.52734375,-40.52734375,-41.015625,-18.5546875,0.0
7860.281532875,-30.2734375,-41.015625,-45.41015625,-17.08984375,0.0
7860.285439125,-32.71484375,-41.9921875,-65.4296875,-16.6015625,0.0
7860.289345375,-31.25,-40.52734375,-83.0078125,-6.8359375,0.0
7860.293251625,-27.34375,-40.52734375,-48.828125,-13.671875,0.0
7860.297157875,-27.34375,-39.55078125,-33.203125,-16.11328125,0.0
7860.301064125,-20.01953125,-37.59765625,-58.59375,-8.7890625,0.0
7860.304970375,-12.6953125,-37.109375,-54.19921875,2.44140625,0.0
7860.308876625,-14.16015625,-38.57421875,2.44140625,-7.32421875,0.0
7860.312782875,-18.06640625,-47.36328125,-22.4609375,-10.25390625,0.0
7860.316689125,-21.97265625,-48.828125,-56.640625,-0.9765625,0.0
7860.319560208,-20.01953125,-41.50390625,-59.08203125,-5.37109375,0.0
7860.323466458,-33.203125,-42.96875,-31.25,-8.30078125,0.0
7860.327372708,-45.8984375,-46.38671875,-31.25,-29.296875,0.0
7860.331278958,-35.15625,-42.96875,-42.48046875,-36.1328125,0.0
7860.335185208,-19.53125,-45.41015625,-40.0390625,-26.85546875,0.0
7860.339091458,-20.5078125,-47.36328125,-32.71484375,-23.92578125,0.0
7860.342997708,-18.5546875,-45.41015625,-15.13671875,-19.04296875,0.0
7860.346903958,-14.16015625,-44.921875,-53.22265625,-12.6953125,0.0
7860.350810208,-27.34375,-51.7578125,-46.38671875,-9.765625,0.0
7860.354716458,-39.55078125,-51.26953125,-19.53125,-7.8125,0.0
7860.358622708,-29.296875,-41.9921875,-37.59765625,-6.34765625,0.0
7860.362528958,-21.97265625,-40.0390625,-11.23046875,-15.13671875,0.0
7860.365870583,-20.01953125,-42.48046875,-8.7890625,-12.6953125,0.0
7860.369776833,-21.484375,-41.9921875,-40.0390625,-7.32421875,0.0
7860.373683083,-30.76171875,-40.0390625,-43.9453125,-11.23046875,0.0
7860.377589333,-25.390625,-35.15625,-32.71484375,-16.11328125,0.0
7860.381495583,-24.90234375,-38.0859375,-32.71484375,-19.53125,0.0
7860.385401833,-25.87890625,-40.0390625,-61.03515625,-13.18359375,0.0
7860.389308083,-33.203125,-39.0625,-51.7578125,-15.625,0.0
7860.393214333,-38.57421875,-37.59765625,-27.34375,-11.71875,0.0
7860.397120583,-31.73828125,-33.69140625,11.71875,-3.90625,0.0
7860.401026833,-24.90234375,-30.76171875,-13.671875,-2.9296875,0.0
7860.404933083,-30.76171875,-34.66796875,-64.94140625,-0.48828125,0.0
7860.408839333,-26.85546875,-39.55078125,-48.828125,-7.32421875,0.0
7860.40974875,-9.27734375,-41.50390625,-27.34375,-12.6953125,0.0
7860.413655,-9.765625,-41.015625,-41.9921875,-1.953125,0.0
7860.41756125,-16.6015625,-37.59765625,-66.89453125,10.7421875,0.0
7860.4214675,-14.16015625,-38.57421875,-39.55078125,8.30078125,0.0
7860.42537375,-17.08984375,-38.57421875,-29.296875,-10.25390625,0.0
7860.42928,-17.578125,-35.64453125,-41.50390625,-20.01953125,0.0
7860.43318625,-16.11328125,-41.50390625,-83.984375,-1.46484375,0.0
7860.4370925,-9.27734375,-40.0390625,-48.828125,1.46484375,0.0
7860.44099875,5.859375,-32.71484375,0.0,-11.23046875,0.0
7860.444905,4.39453125,-35.15625,-37.109375,-12.20703125,0.0
7860.44881125,3.41796875,-33.203125,-33.69140625,-11.23046875,0.0
7860.4527175,-9.765625,-31.73828125,-21.97265625,-0.9765625,0.0
7860.453807875,-27.34375,-36.1328125,-23.92578125,-0.9765625,0.0
7860.457714125,-25.87890625,-40.52734375,-36.1328125,-8.7890625,0.0
7860.461620375,-24.4140625,-42.48046875,-44.921875,-6.34765625,0.0
7860.465526625,-25.390625,-45.8984375,-39.0625,-0.9765625,0.0
7860.469432875,-24.4140625,-47.8515625,-39.55078125,-2.9296875,0.0
7860.473339125,-24.4140625,-48.33984375,-52.734375,-6.8359375,0.0
7860.477245375,-27.83203125,-45.8984375,-48.828125,-7.32421875,0.0
7860.481151625,-31.73828125,-40.52734375,-19.53125,-2.9296875,0.0
7860.485057875,-27.34375,-42.48046875,-10.25390625,-3.41796875,0.0
7860.488964125,-23.92578125,-41.9921875,-41.50390625,-8.30078125,0.0
7860.492870375,-26.3671875,-44.43359375,-36.1328125,-9.27734375,0.0
7860.496776625,-35.15625,-52.734375,-41.015625,-18.5546875,0.0
7860.499045083,-39.0625,-48.828125,-50.78125,-29.78515625,0.0
7860.502951333,-29.78515625,-46.38671875,-39.0625,-29.78515625,0.0
7860.506857583,-29.78515625,-51.7578125,-24.4140625,-22.4609375,0.0
7860.510763833,-33.203125,-46.875,-26.85546875,-25.390625,0.0
7860.514670083,-33.203125,-41.9921875,-41.015625,-23.4375,0.0
7860.518576333,-30.76171875,-47.36328125,-71.77734375,-20.5078125,0.0
7860.522482583,-32.2265625,-48.33984375,-46.875,-25.390625,0.0
7860.526388833,-34.1796875,-48.828125,-17.578125,-24.90234375,0.0
7860.530295083,-39.55078125,-49.8046875,-65.4296875,-20.99609375,0.0
7860.534201333,-42.48046875,-50.29296875,-40.0390625,-23.4375,0.0
7860.538107583,-38.0859375,-54.19921875,-11.23046875,-22.94921875,0.0
7860.542013833,-36.62109375,-59.08203125,-34.1796875,-25.390625,0.0
7860.543645583,-38.57421875,-54.6875,-58.59375,-16.6015625,0.0
7860.547551833,-38.57421875,-48.33984375,-30.76171875,-10.25390625,0.0
7860.551458083,-34.1796875,-47.8515625,-22.4609375,-16.11328125,0.0
7860.555364333,-33.203125,-43.45703125,-23.92578125,-10.7421875,0.0
7860.559270583,-32.71484375,-41.9921875,-43.45703125,-10.25390625,0.0
7860.563176833,-31.73828125,-45.41015625,-49.8046875,-10.7421875,0.0
7860.567083083,-22.94921875,-42.96875,-26.85546875,-13.18359375,0.0
7860.570989333,-15.625,-44.43359375,-2.9296875,-16.11328125,0.0
7860.574895583,-19.04296875,-46.875,-38.57421875,-18.5546875,0.0
7860.578801833,-21.97265625,-53.22265625,-60.546875,-20.5078125,0.0
7860.582708083,-23.92578125,-55.6640625,-1.953125,-20.5078125,0.0
7860.586614333,-28.80859375,-49.31640625,-25.390625,-22.4609375,0.0
7860.588827083,-27.34375,-40.52734375,-55.6640625,-21.484375,0.0
7860.592733333,-37.109375,-36.62109375,-53.22265625,-13.671875,0.0
7860.596639583,-44.921875,-41.50390625,-21.97265625,-17.578125,0.0
7860.600545833,-31.73828125,-44.921875,-27.83203125,-26.3671875,0.0
7860.604452083,-26.85546875,-46.38671875,-41.50390625,-22.94921875,0.0
7860.608358333,-28.3203125,-47.36328125,-42.96875,-10.7421875,0.0
7860.612264583,-25.390625,-48.828125,-30.76171875,-9.27734375,0.0
7860.616170833,-24.90234375,-47.36328125,-17.578125,-8.7890625,0.0
7860.620077083,-23.4375,-43.45703125,-59.5703125,1.953125,0.0
7860.623983333,-25.390625,-37.59765625,-54.6875,10.25390625,0.0
7860.627889583,-26.3671875,-34.1796875,-5.37109375,3.41796875,0.0
7860.631795833,-26.85546875,-36.62109375,-31.25,-10.7421875,0.0
7860.634471416,-37.59765625,-40.0390625,-24.4140625,-13.671875,0.0
7860.638377666,-39.0625,-40.0390625,-20.5078125,-4.39453125,0.0
7860.642283916,-28.80859375,-41.50390625,-36.1328125,2.9296875,0.0
7860.646190166,-13.18359375,-41.9921875,-25.390625,-2.9296875,0.0
7860.650096416,-6.34765625,-43.9453125,-39.55078125,-9.27734375,0.0
7860.654002666,-4.8828125,-44.43359375,-39.0625,-6.34765625,0.0
7860.657908916,-12.20703125,-41.015625,-31.73828125,-2.44140625,0.0
7860.661815166,-28.80859375,-46.38671875,-35.64453125,-12.20703125,0.0
7860.665721416,-36.62109375,-49.8046875,-22.4609375,-12.6953125,0.0
7860.669627666,-31.25,-49.8046875,12.20703125,-9.27734375,0.0
7860.673533916,-30.2734375,-56.15234375,-28.80859375,-16.11328125,0.0
7860.677440166,-42.96875,-61.03515625,-52.24609375,-25.390625,0.0
7860.680534291,-40.0390625,-64.453125,-32.2265625,-33.203125,0.0
7860.684440541,-28.80859375,-57.12890625,-15.625,-20.5078125,0.0
7860.688346791,-27.83203125,-49.8046875,-46.875,-8.30078125,0.0
7860.692253041,-23.4375,-51.26953125,-52.734375,-5.37109375,0.0
7860.696159291,-23.92578125,-52.24609375,-28.3203125,-6.34765625,0.0
7860.700065541,-22.4609375,-50.78125,-31.73828125,-16.11328125,0.0
7860.703971791,-8.30078125,-48.828125,-34.1796875,-13.18359375,0.0
7860.707878041,-4.8828125,-48.33984375,-62.98828125,-0.48828125,0.0
7860.711784291,-15.625,-53.7109375,-20.99609375,-0.48828125,0.0
7860.715690541,-20.5078125,-54.19921875,1.46484375,-12.20703125,0.0
7860.719596791,-16.6015625,-47.8515625,-44.921875,-13.18359375,0.0
7860.723503041,-17.578125,-45.8984375,-34.1796875,-0.9765625,0.0
7860.724624666,-18.06640625,-48.828125,-11.23046875,-7.32421875,0.0
7860.728530916,-13.671875,-51.26953125,-14.6484375,-11.23046875,0.0
7860.732437166,-13.18359375,-58.10546875,-37.109375,-10.7421875,0.0
7860.736343416,-20.5078125,-52.734375,-45.8984375,-15.13671875,0.0
7860.740249666,-21.484375,-41.015625,-29.296875,-15.13671875,0.0
7860.744155916,-19.53125,-44.921875,-36.1328125,-20.99609375,0.0
7860.748062166,-17.578125,-46.875,-36.62109375,-21.484375,0.0
7860.751968416,-20.99609375,-47.8515625,-35.64453125,-2.44140625,0.0
7860.755874666,-29.78515625,-44.921875,5.859375,2.44140625,0.0
7860.759780916,-28.3203125,-43.45703125,-3.90625,-10.7421875,0.0
7860.763687166,-21.484375,-48.828125,-37.59765625,-14.16015625,0.0
7860.767593416,-22.94921875,-50.29296875,-37.59765625,-16.6015625,0.0
7860.770667583,-30.2734375,-50.29296875,-31.73828125,-17.08984375,0.0
7860.774573833,-36.62109375,-52.734375,-39.55078125,-27.34375,0.0
7860.778480083,-31.25,-51.26953125,-38.0859375,-36.1328125,0.0
7860.782386333,-21.97265625,-51.7578125,-20.5078125,-33.203125,0.0
7860.786292583,-31.25,-52.24609375,-46.875,-29.78515625,0.0
7860.790198833,-32.71484375,-49.31640625,-42.48046875,-33.69140625,0.0
7860.794105083,-20.99609375,-50.29296875,-55.17578125,-34.66796875,0.0
7860.798011333,-25.390625,-53.7109375,-38.0859375,-22.94921875,0.0
7860.801917583,-36.1328125,-49.8046875,-1.46484375,-23.4375,0.0
7860.805823833,-36.1328125,-50.29296875,-36.62109375,-26.3671875,0.0
7860.809730083,-31.25,-56.15234375,-14.16015625,-22.4609375,0.0
7860.813636333,-29.296875,-55.17578125,5.859375,-25.390625,0.0
7860.837828666,-19.04296875,-50.29296875,-20.99609375,-21.97265625,0.0
7860.841734916,-22.94921875,-51.7578125,-41.015625,-17.08984375,0.0
7860.845641166,-34.66796875,-52.734375,-16.11328125,-27.34375,0.0
7860.849547416,-31.73828125,-50.78125,5.37109375,-26.85546875,0.0
7860.853453666,-32.71484375,-51.26953125,-13.671875,-19.04296875,0.0
7860.857359916,-28.80859375,-44.43359375,-41.9921875,-13.671875,0.0
7860.861266166,-22.4609375,-41.015625,-30.76171875,-10.7421875,0.0
7860.865172416,-21.484375,-45.41015625,20.99609375,-5.859375,0.0
7860.869078666,-18.5546875,-44.921875,7.32421875,1.953125,0.0
7860.872984916,-23.92578125,-40.52734375,-44.921875,2.9296875,0.0
7860.876891166,-36.62109375,-43.9453125,-26.3671875,-3.90625,0.0
7860.880797416,-30.76171875,-48.828125,0.9765625,-14.16015625,0.0
7860.883358958,-17.578125,-46.875,-18.5546875,-24.4140625,0.0
7860.887265208,-20.01953125,-46.875,-57.12890625,-22.4609375,0.0
7860.891171458,-30.2734375,-46.875,-38.0859375,-17.08984375,0.0
7860.895077708,-33.203125,-46.38671875,0.9765625,-17.578125,0.0
7860.898983958,-36.1328125,-47.36328125,-18.5546875,-16.6015625,0.0
7860.902890208,-34.66796875,-52.734375,-70.80078125,-17.08984375,0.0
7860.906796458,-32.71484375,-48.828125,-58.10546875,-15.13671875,0.0
7860.910702708,-30.76171875,-39.0625,0.48828125,-16.6015625,0.0
7860.914608958,-19.04296875,-38.57421875,-17.578125,-20.01953125,0.0
7860.918515208,-18.5546875,-41.9921875,-34.66796875,-23.4375,0.0
7860.922421458,-29.78515625,-41.015625,-28.80859375,-20.01953125,0.0
7860.926327708,-27.83203125,-36.62109375,-27.83203125,-23.4375,0.0
7860.92801975,-17.578125,-41.9921875,-31.25,-18.5546875,0.0
7860.931926,-17.08984375,-46.875,-17.578125,-12.20703125,0.0
7860.93583225,-14.6484375,-38.0859375,-19.53125,-8.7890625,0.0
7860.9397385,-11.71875,-32.2265625,-20.5078125,-5.37109375,0.0
7860.94364475,-2.9296875,-44.921875,-1.46484375,-7.32421875,0.0
7860.947551,-0.48828125,-49.8046875,7.32421875,-3.41796875,0.0
7860.95145725,-17.578125,-48.828125,-6.34765625,-4.8828125,0.0
7860.9553635,-23.4375,-49.31640625,-11.23046875,-17.578125,0.0
7860.95926975,-19.04296875,-44.921875,-24.4140625,-22.4609375,0.0
7860.963176,-19.53125,-41.9921875,-31.73828125,-20.5078125,0.0
7860.96708225,-23.4375,-40.52734375,-6.34765625,-11.71875,0.0
7860.9709885,-32.71484375,-47.8515625,-36.62109375,-14.6484375,0.0
7860.976128125,-29.78515625,-46.38671875,-53.7109375,-26.3671875,0.0
7860.980034375,-12.6953125,-35.64453125,-40.0390625,-20.5078125,0.0
7860.983940625,-11.71875,-43.9453125,-29.296875,-15.625,0.0
7860.987846875,-19.04296875,-51.26953125,-57.12890625,-16.11328125,0.0
7860.991753125,-22.4609375,-47.8515625,-59.5703125,-18.5546875,0.0
7860.995659375,-13.671875,-50.29296875,-48.33984375,-12.6953125,0.0
7860.999565625,-9.27734375,-45.8984375,-20.99609375,-4.39453125,0.0
7861.003471875,-15.625,-38.0859375,-34.1796875,-6.8359375,0.0
7861.007378125,-15.13671875,-39.55078125,-83.0078125,0.9765625,0.0
7861.011284375,-7.8125,-38.0859375,-48.828125,0.48828125,0.0
7861.015190625,-7.8125,-35.64453125,-14.16015625,-12.20703125,0.0
7861.019096875,-14.6484375,-36.62109375,-70.80078125,-16.11328125,0.0
7861.024086541,-12.20703125,-41.015625,-56.640625,-17.08984375,0.0
7861.027992791,-16.6015625,-42.96875,-17.578125,-15.625,0.0
7861.031899041,-34.1796875,-46.38671875,-28.3203125,-19.04296875,0.0
7861.035805291,-30.76171875,-49.8046875,-60.05859375,-19.53125,0.0
7861.039711541,-23.4375,-50.29296875,-66.40625,-12.6953125,0.0
7861.043617791,-22.94921875,-46.38671875,3.90625,-12.20703125,0.0
7861.047524041,-31.73828125,-41.9921875,15.13671875,-20.5078125,0.0
7861.051430291,-43.45703125,-41.9921875,-38.57421875,-25.87890625,0.0
7861.055336541,-43.45703125,-41.9921875,-39.0625,-23.4375,0.0
7861.059242791,-36.62109375,-37.59765625,4.39453125,-35.15625,0.0
7861.063149041,-28.3203125,-35.15625,-26.85546875,-38.0859375,0.0
7861.067055291,-29.78515625,-41.9921875,-56.15234375,-28.80859375,0.0
7861.068417916,-40.0390625,-46.875,-64.453125,-21.97265625,0.0
7861.072324166,-42.96875,-42.96875,-54.19921875,-10.25390625,0.0
7861.076230416,-33.203125,-43.9453125,-63.4765625,-13.18359375,0.0
7861.080136666,-22.94921875,-49.8046875,-65.4296875,-23.92578125,0.0
7861.084042916,-25.87890625,-48.828125,-68.84765625,-29.78515625,0.0
7861.087949166,-30.76171875,-42.96875,-84.47265625,-32.71484375,0.0
7861.091855416,-28.80859375,-36.62109375,-50.29296875,-39.0625,0.0
7861.095761666,-21.484375,-40.52734375,-66.89453125,-39.0625,0.0
7861.099667916,-20.01953125,-46.38671875,-55.6640625,-20.5078125,0.0
7861.103574166,-20.99609375,-44.921875,-27.83203125,-0.9765625,0.0
7861.107480416,-17.08984375,-51.26953125,-55.17578125,10.25390625,0.0
7861.111386666,-15.625,-52.24609375,-41.50390625,6.34765625,0.0
7861.11734825,-26.3671875,-49.8046875,-26.3671875,-0.9765625,0.0
7861.1212545,-31.73828125,-45.8984375,-59.5703125,2.44140625,0.0
7861.12516075,-22.94921875,-40.52734375,-62.01171875,0.0,0.0
7861.129067,-20.01953125,-38.57421875,-36.1328125,-14.16015625,0.0
7861.13297325,-24.4140625,-41.50390625,-29.78515625,-11.71875,0.0
7861.1368795,-29.296875,-44.43359375,-53.7109375,-3.41796875,0.0
7861.14078575,-36.1328125,-49.31640625,-41.50390625,-15.625,0.0
7861.144692,-36.62109375,-52.734375,-25.87890625,-20.5078125,0.0
7861.14859825,-33.69140625,-48.33984375,-6.34765625,-11.71875,0.0
7861.1525045,-43.45703125,-47.8515625,-39.55078125,-14.6484375,0.0
7861.15641075,-42.96875,-47.36328125,-81.54296875,-9.27734375,0.0
7861.160317,-34.66796875,-43.9453125,-56.640625,-10.25390625,0.0
7861.162370416,-36.1328125,-42.48046875,-34.66796875,-19.04296875,0.0
7861.166276666,-35.64453125,-48.828125,-54.19921875,-22.4609375,0.0
7861.170182916,-33.203125,-53.22265625,-77.1484375,-30.2734375,0.0
7861.174089166,-34.1796875,-46.38671875,-40.0390625,-31.73828125,0.0
7861.177995416,-42.48046875,-50.29296875,-40.52734375,-26.85546875,0.0
7861.181901666,-39.0625,-53.7109375,-62.98828125,-22.94921875,0.0
7861.185807916,-37.109375,-47.8515625,-79.1015625,-17.578125,0.0
7861.189714166,-43.45703125,-50.78125,-58.10546875,-10.7421875,0.0
7861.193620416,-36.62109375,-51.7578125,-6.8359375,-14.6484375,0.0
7861.197526666,-34.1796875,-44.921875,-34.1796875,-21.97265625,0.0
7861.201432916,-41.50390625,-43.45703125,-57.6171875,-24.4140625,0.0
7861.205339166,-36.1328125,-39.55078125,-40.0390625,-30.76171875,0.0
7861.209161125,-31.25,-39.0625,-26.85546875,-38.57421875,0.0
7861.213067375,-25.87890625,-41.015625,-33.203125,-22.94921875,0.0
7861.216973625,-20.5078125,-38.57421875,-38.0859375,-14.16015625,0.0
7861.220879875,-17.578125,-40.0390625,-27.83203125,-25.390625,0.0
7861.224786125,-21.484375,-45.41015625,-35.15625,-27.83203125,0.0
7861.228692375,-25.390625,-44.921875,-49.8046875,-25.87890625,0.0
7861.232598625,-19.53125,-45.8984375,-39.55078125,-18.5546875,0.0
7861.236504875,-28.3203125,-47.36328125,-2.44140625,-10.7421875,0.0
7861.240411125,-30.2734375,-48.828125,3.41796875,-7.32421875,0.0
7861.244317375,-26.85546875,-47.36328125,-31.73828125,-7.8125,0.0
7861.248223625,-25.87890625,-43.45703125,-35.15625,-11.23046875,0.0
7861.252129875,-23.92578125,-40.0390625,-34.1796875,-19.04296875,0.0
7861.255982208,-22.4609375,-36.62109375,-27.34375,-29.78515625,0.0
7861.259888458,-19.04296875,-41.9921875,-36.1328125,-32.71484375,0.0
7861.263794708,-21.97265625,-39.55078125,-23.4375,-28.80859375,0.0
7861.267700958,-19.04296875,-39.55078125,-24.4140625,-26.3671875,0.0
7861.271607208,-17.08984375,-48.33984375,-47.8515625,-18.06640625,0.0
7861.275513458,-32.2265625,-50.78125,-63.4765625,-19.53125,0.0
7861.279419708,-39.0625,-51.26953125,-35.15625,-26.3671875,0.0
7861.283325958,-29.78515625,-48.828125,-10.7421875,-26.3671875,0.0
7861.287232208,-31.25,-48.33984375,-39.0625,-22.94921875,0.0
7861.291138458,-32.2265625,-47.8515625,-39.0625,-10.25390625,0.0
7861.295044708,-36.62109375,-41.9921875,-6.8359375,-9.27734375,0.0
7861.298950958,-44.43359375,-43.45703125,-17.578125,-16.6015625,0.0
7861.302005166,-40.0390625,-50.78125,-64.453125,-7.8125,0.0
7861.305911416,-31.73828125,-45.8984375,-36.62109375,-8.7890625,0.0
7861.309817666,-19.53125,-36.1328125,-8.7890625,-17.08984375,0.0
7861.313723916,-13.18359375,-38.57421875,-17.578125,-20.01953125,0.0
7861.317630166,-16.6015625,-36.1328125,-55.6640625,-12.6953125,0.0
7861.321536416,-8.7890625,-36.1328125,-47.36328125,-4.8828125,0.0
7861.325442666,-12.20703125,-43.9453125,-0.9765625,-12.6953125,0.0
7861.329348916,-26.3671875,-41.9921875,1.953125,-7.32421875,0.0
7861.333255166,-20.01953125,-42.96875,-30.2734375,-0.48828125,0.0
7861.337161416,-17.08984375,-46.875,-43.45703125,-4.8828125,0.0
7861.341067666,-23.92578125,-49.31640625,3.41796875,-7.8125,0.0
7861.344973916,-31.73828125,-52.24609375,-14.6484375,-15.625,0.0
7861.374368291,-22.94921875,-49.31640625,-53.7109375,-23.92578125,0.0
7861.378274541,-18.5546875,-41.9921875,-51.7578125,-13.18359375,0.0
7861.382180791,-24.4140625,-39.55078125,-20.5078125,-9.765625,0.0
7861.386087041,-24.4140625,-41.50390625,-28.3203125,-13.18359375,0.0
7861.389993291,-30.2734375,-44.43359375,-37.59765625,-8.30078125,0.0
7861.393899541,-32.71484375,-45.41015625,-46.875,-7.8125,0.0
7861.397805791,-18.5546875,-50.29296875,-20.5078125,-8.7890625,0.0
7861.401712041,-23.92578125,-56.15234375,-15.625,-12.20703125,0.0
7861.405618291,-38.57421875,-58.59375,-68.359375,-14.16015625,0.0
7861.409524541,-33.69140625,-57.12890625,-53.7109375,-13.18359375,0.0
7861.413430791,-32.71484375,-49.8046875,-5.859375,-17.578125,0.0
7861.417337041,-41.015625,-54.19921875,-20.5078125,-20.01953125,0.0
7861.397078875,-41.50390625,-54.19921875,-4.8828125,-10.25390625,0.0
7861.400985125,-33.203125,-48.33984375,-1.46484375,4.39453125,0.0
7861.404891375,-36.62109375,-44.43359375,-24.90234375,4.39453125,0.0
7861.408797625,-31.73828125,-46.38671875,-33.69140625,-12.20703125,0.0
7861.412703875,-16.6015625,-52.734375,-41.50390625,-25.390625,0.0
7861.416610125,-15.13671875,-48.33984375,-28.3203125,-19.04296875,0.0
7861.420516375,-16.11328125,-43.9453125,-22.4609375,-14.16015625,0.0
7861.424422625,-23.92578125,-48.33984375,-27.83203125,-18.5546875,0.0
7861.428328875,-29.296875,-50.29296875,-9.765625,-19.53125,0.0
7861.432235125,-34.66796875,-47.8515625,22.94921875,-21.484375,0.0
7861.436141375,-40.52734375,-44.43359375,-20.01953125,-22.4609375,0.0
7861.440047625,-28.3203125,-43.9453125,-48.33984375,-17.578125,0.0
7861.444549541,-19.04296875,-47.36328125,-26.85546875,-15.13671875,0.0
