,Cz,Fz,Fp1,F7,F3,FC1,C3,FC5,FT9,T7,CP5,CP1,P3,P7,PO9,O1,Pz,Oz,O2,PO10,P8,P4,CP2,CP6,T8,FT10,FC6,C4,FC2,F4,F8,Fp2,batch
batch1/session_005,0.5580379962921143,0.17165665328502655,0.032733235508203506,0.16413457691669464,0.239645853638649,0.4798901677131653,0.316769540309906,0.27607792615890503,0.08635950088500977,0.2301481068134308,0.2689027488231659,0.4500625431537628,0.1912502944469452,0.1523994654417038,0.09390281140804291,0.07581409811973572,0.28589382767677307,0.023847414180636406,0.017133552581071854,-0.018515581265091896,0.04787639528512955,0.21634311974048615,0.292058527469635,0.190210223197937,0.14626063406467438,0.08183559030294418,0.18943139910697937,0.3366195261478424,0.41155049204826355,0.19870975613594055,0.0571487732231617,0.012957552447915077,batch1
batch1/session_006,0.3833950459957123,0.11098404228687286,0.05040184035897255,0.06530654430389404,0.16554060578346252,0.3472268581390381,0.3830045163631439,0.18004070222377777,-0.017611173912882805,0.16426478326320648,0.2599661350250244,0.3529893755912781,0.23055431246757507,0.035487595945596695,-0.1303391009569168,0.03249499574303627,0.22474204003810883,0.005543464329093695,-0.014666056260466576,-0.0581463985145092,0.029062984511256218,0.14229173958301544,0.24130170047283173,0.13536274433135986,0.05872882157564163,-0.06341229379177094,0.1297762393951416,0.22417986392974854,0.23310330510139465,0.1321915090084076,0.018436389043927193,0.04794982075691223,batch1
batch1/session_007,0.6225175261497498,0.4515170454978943,0.20300237834453583,0.326820433139801,0.41941002011299133,0.590122640132904,0.6479912996292114,0.48500320315361023,0.2276727855205536,0.3767923414707184,0.41449877619743347,0.539350152015686,0.4027431905269623,0.27498942613601685,0.09866586327552795,0.18659627437591553,0.39153262972831726,0.14381997287273407,0.17482933402061462,0.03408652916550636,0.17096810042858124,0.25618976354599,0.44855597615242004,0.32393312454223633,0.25316280126571655,0.14304880797863007,0.31417855620384216,0.3923393785953522,0.469675749540329,0.3658047020435333,0.22971495985984802,0.19306078553199768,batch1
batch1/session_008,0.5122657418251038,0.24880802631378174,0.05666168034076691,0.1017531007528305,0.20163363218307495,0.4599815011024475,0.45402994751930237,0.26913443207740784,0.06672931462526321,0.1683434396982193,0.27857524156570435,0.42561841011047363,0.27704548835754395,0.08278407156467438,-0.03299546241760254,0.14104963839054108,0.33430176973342896,0.14796802401542664,0.11097187548875809,0.036811333149671555,0.14950281381607056,0.30011871457099915,0.37570953369140625,0.2301042675971985,0.16967809200286865,0.04946162551641464,0.25427064299583435,0.33832383155822754,0.3946036100387573,0.2256869077682495,0.13145841658115387,0.06939030438661575,batch1
batch1/session_009,0.5431482195854187,0.11407911777496338,-0.012160479091107845,0.03886232152581215,0.2924240827560425,0.6408179402351379,0.6201598048210144,0.4040287733078003,0.08438566327095032,0.19171035289764404,0.35892125964164734,0.6467385292053223,0.5219393372535706,0.2415885329246521,0.17811352014541626,0.3211517632007599,0.5212578177452087,0.2406720370054245,0.22961851954460144,0.11765468865633011,0.24206937849521637,0.38040244579315186,0.5568274259567261,0.44034019112586975,0.1770390123128891,0.173397958278656,0.27021104097366333,0.48618632555007935,0.5369923114776611,0.2894689738750458,0.1722985953092575,0.029611848294734955,batch1
batch1/session_010,0.474323570728302,0.45919960737228394,0.18784549832344055,0.24856242537498474,0.4825363755226135,0.6603237986564636,0.6263172626495361,0.2895163595676422,-0.0017723304918035865,0.3835366368293762,0.4949134886264801,0.5548819899559021,0.454307496547699,0.3101790249347687,-0.0056214286014437675,0.2113885134458542,0.4405168294906616,0.1636032909154892,0.1087355762720108,0.02664278633892536,0.13672079145908356,0.35903263092041016,0.48398980498313904,0.35378313064575195,0.15190134942531586,0.13808351755142212,0.345287024974823,0.44627636671066284,0.5091631412506104,0.3479287624359131,0.18693871796131134,0.18347865343093872,batch1
batch1/session_011,0.4837179183959961,0.29597413539886475,0.07814729958772659,0.13384215533733368,0.2721504867076874,0.5664615631103516,0.5557861328125,0.3273288607597351,-0.08356600254774094,0.23615331947803497,0.3430243134498596,0.4985926151275635,0.33439064025878906,0.30711621046066284,0.11588366329669952,0.16301319003105164,0.3735063374042511,0.21444782614707947,0.06586549431085587,-0.07942040264606476,0.15845699608325958,0.34537288546562195,0.40480294823646545,0.2849484980106354,0.06845678389072418,0.07304554432630539,0.24054118990898132,0.41743698716163635,0.4207249879837036,0.23767495155334473,0.09280726313591003,0.11820023506879807,batch1
batch1/session_012,0.37983080744743347,0.14353293180465698,0.07681211084127426,0.14999334514141083,0.22943532466888428,0.4360218048095703,0.44769924879074097,0.35302770137786865,0.05729205161333084,0.35915815830230713,0.36800241470336914,0.37708625197410583,0.36276400089263916,0.3023741543292999,0.05642729252576828,0.21937908232212067,0.22207334637641907,0.1813192218542099,0.1409454494714737,0.0321999117732048,0.15873512625694275,0.23596255481243134,0.309817373752594,0.1758081167936325,0.050543975085020065,0.013968724757432938,0.11741074919700623,0.21697548031806946,0.2964918613433838,0.09961885958909988,0.008416431955993176,0.02995927818119526,batch1
batch1/session_013,0.4435201585292816,0.32817089557647705,0.12456242740154266,0.21298986673355103,0.40513551235198975,0.5660516619682312,0.42723146080970764,0.3450225591659546,0.02937971241772175,0.4339876174926758,0.4598906338214874,0.5069536566734314,0.4440380334854126,0.2875111997127533,0.04847930371761322,0.17288416624069214,0.3226473033428192,0.12799081206321716,0.11299008876085281,-0.02281336486339569,0.11745817214250565,0.27241191267967224,0.36703526973724365,0.31900736689567566,0.1928654909133911,0.17421868443489075,0.314456045627594,0.3752632737159729,0.4205757975578308,0.30207154154777527,0.21764621138572693,0.11859303712844849,batch1
batch1/session_014,0.615772008895874,0.4920133650302887,0.29037073254585266,0.30429258942604065,0.4924672842025757,0.7426214218139648,0.3221191465854645,0.4151352047920227,0.17014093697071075,0.4734283685684204,0.5665469169616699,0.6427785754203796,0.5298627614974976,0.30361300706863403,0.10025593638420105,0.30980753898620605,0.4499291777610779,0.24233825504779816,0.2431335598230362,0.08481825143098831,0.2746938467025757,0.490155428647995,0.5117175579071045,0.44708603620529175,0.28312966227531433,0.25317972898483276,0.48232167959213257,0.5622026920318604,0.6402387619018555,0.48832911252975464,0.3049778342247009,0.2937418818473816,batch1
batch1/session_015,0.2941000461578369,0.22346390783786774,0.05868234485387802,0.14482912421226501,0.23080095648765564,0.3432919979095459,0.4470621943473816,0.3168378174304962,0.12767142057418823,0.2926826477050781,0.37668097019195557,0.28666916489601135,0.35339486598968506,0.364376038312912,0.11180553585290909,0.23999635875225067,0.24190986156463623,0.1723068803548813,0.18827849626541138,0.08574296534061432,0.22992540895938873,0.271413117647171,0.27624964714050293,0.2916151285171509,0.15848210453987122,0.15256181359291077,0.24755258858203888,0.25941985845565796,0.2553733289241791,0.1718883067369461,0.13241399824619293,0.0284088347107172,batch1
batch1/session_016,0.5379995107650757,0.36514389514923096,0.013894200325012207,0.15610095858573914,0.3390853703022003,0.6180598139762878,0.5643278360366821,0.3749809265136719,0.16874505579471588,0.4486738443374634,0.4801363945007324,0.5774558782577515,0.500539243221283,0.2677222490310669,0.14561991393566132,0.2862239480018616,0.44234269857406616,0.23852171003818512,0.15113291144371033,0.09629613161087036,0.2504715323448181,0.4022875726222992,0.45838674902915955,0.3925105929374695,0.20518487691879272,0.17422719299793243,0.32939448952674866,0.4891968369483948,0.48008033633232117,0.3214503526687622,0.13712657988071442,0.008818591944873333,batch1
batch1/session_017,0.5225204229354858,0.4033096730709076,0.10332322120666504,0.15421278774738312,0.38649025559425354,0.5464964509010315,0.5698879957199097,0.4339900612831116,0.0725572258234024,0.2840079069137573,0.4932085871696472,0.5649526119232178,0.4757938086986542,0.2643994390964508,0.057316746562719345,0.2313738912343979,0.45612290501594543,0.19627335667610168,0.08050473034381866,-0.07956667989492416,0.16473659873008728,0.42545774579048157,0.5391883254051208,0.4226650297641754,0.13881133496761322,0.12082929909229279,0.2946433424949646,0.5065388083457947,0.5358334183692932,0.33926114439964294,0.19657836854457855,0.08186539262533188,batch1
batch1/session_018,0.49455514550209045,0.37500491738319397,0.16225381195545197,0.18060815334320068,0.4010982811450958,0.6393136978149414,0.6258524060249329,0.33504152297973633,-0.04889719560742378,0.3819029927253723,0.5714195966720581,0.5483324527740479,0.5562658905982971,0.18858350813388824,0.09272127598524094,0.2728242576122284,0.3631435036659241,0.1694599688053131,0.11565036326646805,-0.11253605782985687,0.051533352583646774,0.3225879371166229,0.4205276370048523,0.2730988562107086,0.04362219572067261,0.021322468295693398,0.21086879074573517,0.3751963675022125,0.4612686038017273,0.2791333496570587,0.029172709211707115,0.0781458392739296,batch1
batch1/session_019,0.44328221678733826,0.27708208560943604,0.06429430842399597,0.08861347287893295,0.23358815908432007,0.45804011821746826,0.4241144359111786,0.13582834601402283,-0.0247573833912611,0.19800683856010437,0.3246929347515106,0.47109127044677734,0.40086445212364197,0.028679318726062775,0.028774091973900795,0.1649612933397293,0.3704947531223297,0.18870651721954346,0.24436043202877045,0.0611296147108078,0.30607399344444275,0.4158008098602295,0.45242050290107727,0.38517534732818604,0.232346311211586,0.23788855969905853,0.2898752689361572,0.4424596130847931,0.4368728995323181,0.21785031259059906,0.13283349573612213,0.06946556270122528,batch1
batch1/session_020,0.3577556312084198,0.16112376749515533,0.01965503767132759,0.006784616969525814,0.22893014550209045,0.35354602336883545,0.43678393959999084,0.06351527571678162,0.0061409627087414265,0.15531812608242035,0.23374038934707642,0.3480548560619354,0.29107731580734253,0.09991519153118134,0.04260154440999031,0.07051343470811844,0.08008760958909988,0.18029850721359253,0.007765085436403751,-0.09747369587421417,0.0675121322274208,0.2461581826210022,0.30152809619903564,0.2074352353811264,0.02671099081635475,0.03079560399055481,0.19674311578273773,0.30300548672676086,0.36483529210090637,0.14973250031471252,0.11484458297491074,-0.03334822133183479,batch1
batch2/session_001,0.3934757709503174,0.27298325300216675,0.02050945721566677,0.27066993713378906,0.3025014400482178,0.545658528804779,0.5962287783622742,0.38043296337127686,0.21661895513534546,0.31361979246139526,0.3940974175930023,0.4246552884578705,0.1396123319864273,0.09681084752082825,-0.10636945813894272,0.1941383332014084,0.22594137489795685,-0.06465042382478714,-0.0500626415014267,-0.13235999643802643,0.09027352929115295,0.19738233089447021,0.2541390359401703,0.2007443606853485,0.12236329168081284,0.09315945953130722,0.2898256778717041,0.3907395601272583,0.4001390337944031,0.2661084234714508,0.20812250673770905,0.01741699129343033,batch2
batch2/session_002,0.2761486768722534,0.30585044622421265,0.22316418588161469,0.24759666621685028,0.31635862588882446,,0.4468068480491638,0.31374290585517883,0.20939812064170837,0.2684365212917328,0.39973264932632446,0.335916668176651,0.36285290122032166,0.22974662482738495,-0.010961988009512424,0.05296936631202698,0.27402761578559875,0.05284275487065315,0.06029878556728363,-0.0030338317155838013,0.07841018587350845,0.20491740107536316,0.3131554424762726,0.2870836853981018,0.1879492700099945,0.16317541897296906,0.2569890320301056,0.3450148403644562,0.38831600546836853,0.24636630713939667,0.16488784551620483,0.25817838311195374,batch2
batch2/session_003,0.26657041907310486,0.12258855253458023,-0.02298126183450222,0.009463584050536156,0.12838831543922424,,0.1916912943124771,0.15265624225139618,0.02638290636241436,0.054234087467193604,0.2505662143230438,0.3279702067375183,0.18423400819301605,0.04337466135621071,-0.14936389029026031,0.06891070306301117,0.22566014528274536,-0.0494035966694355,-0.13536889851093292,-0.11699993163347244,0.04243995621800423,0.20143510401248932,0.27636954188346863,0.16962288320064545,0.03522588685154915,-0.16749577224254608,0.08284427225589752,0.23376710712909698,0.2586763799190521,0.09451264888048172,-0.030925942584872246,0.003965231589972973,batch2
batch2/session_004,0.30778968334198,0.12506984174251556,-0.08510403335094452,0.049171604216098785,0.08160293847322464,0.4134847819805145,0.3676607310771942,0.12176590412855148,-0.07050095498561859,0.043749209493398666,0.24390342831611633,0.2115289717912674,0.2151518166065216,-0.018125277012586594,-0.1487751305103302,-0.10306364297866821,0.1663287878036499,-0.12996329367160797,-0.08004622161388397,-0.08645561337471008,0.0019356671255081892,0.12834683060646057,0.19070984423160553,0.12174776941537857,0.0655963122844696,0.031035907566547394,0.12416516244411469,0.2211969494819641,0.25251033902168274,0.07098580151796341,-0.011396246962249279,0.03341865539550781,batch2
batch2/session_005,0.37915098667144775,0.13199935853481293,0.0906718298792839,0.12564235925674438,0.19550001621246338,,0.24629685282707214,0.2005363255739212,0.09432405233383179,0.1904691457748413,0.2636513411998749,0.2412862926721573,0.2914327383041382,0.1996268928050995,-0.020970869809389114,0.08350305259227753,0.21557295322418213,0.018145818263292313,-0.0121023990213871,-0.06137961521744728,0.10732588917016983,0.2034808099269867,0.23029263317584991,0.2146681547164917,0.16879871487617493,0.10413311421871185,0.2117101401090622,0.269350528717041,0.28383326530456543,0.1151537224650383,0.18882347643375397,0.057756584137678146,batch2
batch2/session_006,0.4344421923160553,0.19097499549388885,0.10538075864315033,0.23144108057022095,0.25794610381126404,,0.46321937441825867,0.2964598834514618,0.2060813158750534,0.2656010091304779,0.3425305485725403,0.46110740303993225,0.35273241996765137,0.2482975423336029,0.1966390162706375,0.23505426943302155,0.35957589745521545,0.19962099194526672,0.24071234464645386,0.14874684810638428,0.2400912493467331,0.334298700094223,0.39160388708114624,0.32410454750061035,0.24302315711975098,0.17360855638980865,0.30123645067214966,0.3597579598426819,0.3191179931163788,0.23634935915470123,0.1757817417383194,0.11700429022312164,batch2
batch2/session_007,0.3931351602077484,0.20055876672267914,0.06208043918013573,0.12711143493652344,0.24870848655700684,,0.36696723103523254,0.20596206188201904,0.0658327043056488,0.14076422154903412,0.27019190788269043,0.3252304494380951,0.22361576557159424,0.09843665361404419,0.008949807845056057,0.05504892021417618,0.12568938732147217,0.02435481920838356,-0.02223435789346695,-0.053822360932826996,0.022471357136964798,0.14388814568519592,0.21217884123325348,0.14863285422325134,0.05305458977818489,0.03804149106144905,0.17071865499019623,0.25906869769096375,0.2977047562599182,0.16838455200195312,0.06300434470176697,0.07042359560728073,batch2
batch2/session_008,0.49759426712989807,0.28899139165878296,0.12192774564027786,0.1634477972984314,0.28145214915275574,,0.5019022226333618,0.3257535398006439,0.17025798559188843,0.26634326577186584,0.40600091218948364,0.46905073523521423,0.46365681290626526,0.2524583637714386,0.11133620887994766,0.27153080701828003,0.3105098307132721,0.2006966769695282,0.09233444184064865,0.061987780034542084,0.191057950258255,0.31302881240844727,0.3897117078304291,0.27050575613975525,0.16580773890018463,0.13959236443042755,0.19905292987823486,0.3176618814468384,0.3532020151615143,0.1896912157535553,0.09264321625232697,0.14036332070827484,batch2
batch2/session_009,0.5985453128814697,0.28972047567367554,0.02312002331018448,0.11095627397298813,0.28837236762046814,,0.5239502191543579,0.29490888118743896,0.19041888415813446,0.29989370703697205,0.40366509556770325,0.5044292211532593,0.3740786015987396,0.3127947151660919,0.10146381705999374,0.19267605245113373,0.35907378792762756,0.20731250941753387,0.2455662339925766,0.08511422574520111,0.25478410720825195,0.3665072023868561,0.4703899025917053,0.314674437046051,0.3021524250507355,0.2069433480501175,0.33285537362098694,0.4277888536453247,0.4417814314365387,0.2747819125652313,0.2398746758699417,0.04720894247293472,batch2
batch2/session_010,0.2726767063140869,0.08238662779331207,0.074397511780262,-0.013560334220528603,0.11919526010751724,,0.15135778486728668,0.10849254578351974,-0.05277608335018158,-0.018487393856048584,0.026507630944252014,0.12671110033988953,0.03471323102712631,-0.08073601126670837,-0.10911314189434052,-0.06395675987005234,0.07352562993764877,-0.06314290314912796,-0.1231524646282196,-0.02032073400914669,0.047024115920066833,0.09859947860240936,0.1434992402791977,0.08578310906887054,0.019199399277567863,0.026751548051834106,0.10260151326656342,0.13426613807678223,0.1594017893075943,0.07486367970705032,0.1207655742764473,0.06488997489213943,batch2
