lsl_timestamp,TP9,AF7,AF8,TP10,Right AUX
86301.104154,-4.8828125,-74.70703125,6.8359375,35.15625,0.0
86301.10806025,32.2265625,-76.171875,0.0,33.203125,0.0
86301.1119665,62.98828125,-77.1484375,-5.859375,44.43359375,0.0
86301.11587275,61.5234375,-68.84765625,0.48828125,41.9921875,0.0
86301.119779,48.828125,-67.87109375,3.41796875,15.13671875,0.0
86301.12368525,59.5703125,-74.21875,-0.9765625,5.37109375,0.0
86301.1275915,60.05859375,-70.3125,-6.8359375,22.94921875,0.0
86301.13149775,45.8984375,-58.10546875,-11.23046875,35.15625,0.0
86301.135404,67.3828125,-48.33984375,-13.671875,22.4609375,0.0
86301.13931025,111.328125,-48.33984375,-13.671875,0.0,0.0
86301.1432165,122.0703125,-52.734375,-16.11328125,10.25390625,0.0
86301.14712275,116.2109375,-54.6875,-10.25390625,9.27734375,0.0
86301.150776458,128.90625,-51.26953125,-11.23046875,-31.25,0.0
86301.154682708,158.69140625,-45.8984375,-21.97265625,-50.29296875,0.0
86301.158588958,167.48046875,-41.9921875,-25.390625,-31.25,0.0
86301.162495208,132.8125,-48.33984375,-25.87890625,-6.8359375,0.0
86301.166401458,114.2578125,-53.22265625,-21.97265625,-13.18359375,0.0
86301.170307708,122.55859375,-51.7578125,-20.99609375,-36.62109375,0.0
86301.174213958,109.375,-46.875,-27.34375,-27.34375,0.0
86301.178120208,91.30859375,-36.62109375,-23.4375,3.90625,0.0
86301.182026458,52.24609375,-41.9921875,-15.625,13.671875,0.0
86301.185932708,43.9453125,-48.33984375,-22.94921875,-4.39453125,0.0
86301.189838958,69.3359375,-41.9921875,-25.390625,-6.34765625,0.0
86301.193745208,92.7734375,-37.59765625,-17.578125,11.71875,0.0
86301.1976885,92.28515625,-39.0625,-15.13671875,20.5078125,0.0
86301.20159475,79.58984375,-39.0625,-13.18359375,12.6953125,0.0
86301.205501,93.75,-39.0625,-15.13671875,2.44140625,0.0
86301.20940725,114.74609375,-35.64453125,-18.06640625,13.671875,0.0
86301.2133135,103.515625,-33.203125,-16.6015625,21.484375,0.0
86301.21721975,80.078125,-38.0859375,-27.34375,-0.48828125,0.0
86301.221126,83.49609375,-35.64453125,-32.71484375,-25.390625,0.0
86301.22503225,89.35546875,-35.64453125,-22.4609375,-21.97265625,0.0
86301.2289385,85.44921875,-37.109375,-15.13671875,-1.46484375,0.0
86301.23284475,71.77734375,-33.69140625,-16.11328125,3.90625,0.0
86301.236751,97.16796875,-25.87890625,-12.6953125,-12.6953125,0.0
86301.24065725,119.140625,-22.94921875,-15.13671875,-21.484375,0.0
86301.244777,105.46875,-34.66796875,-22.94921875,-3.90625,0.0
86301.24868325,83.984375,-40.52734375,-29.78515625,1.953125,0.0
86301.2525895,86.9140625,-38.57421875,-31.25,-19.53125,0.0
86301.25649575,68.359375,-35.15625,-20.5078125,-26.3671875,0.0
86301.260402,59.08203125,-33.203125,-19.53125,-7.32421875,0.0
86301.26430825,71.2890625,-39.55078125,-21.484375,0.0,0.0
86301.2682145,73.73046875,-39.0625,-22.4609375,-25.87890625,0.0
86301.27212075,82.03125,-34.1796875,-20.01953125,-45.8984375,0.0
86301.276027,86.42578125,-37.109375,-14.6484375,-31.25,0.0
86301.27993325,61.03515625,-37.109375,-10.25390625,-20.5078125,0.0
86301.2838395,50.78125,-34.66796875,-0.48828125,-34.1796875,0.0
86301.28774575,86.42578125,-32.71484375,-5.859375,-50.29296875,0.0
86301.291066416,82.51953125,-28.80859375,-12.20703125,-46.38671875,0.0
86301.294972666,63.96484375,-28.80859375,-15.625,-32.2265625,0.0
86301.298878916,40.0390625,-27.83203125,-26.3671875,-40.0390625,0.0
86301.302785166,55.6640625,-27.83203125,-24.4140625,-70.80078125,0.0
86301.306691416,84.9609375,-27.34375,-22.94921875,-70.3125,0.0
86301.310597666,103.02734375,-27.34375,-28.80859375,-46.875,0.0
86301.314503916,71.2890625,-36.62109375,-27.83203125,-44.43359375,0.0
86301.318410166,31.25,-52.24609375,-28.80859375,-68.84765625,0.0
86301.322316416,41.015625,-48.828125,-33.203125,-77.1484375,0.0
86301.326222666,47.8515625,-31.25,-30.76171875,-61.5234375,0.0
86301.330128916,33.69140625,-28.3203125,-26.3671875,-54.6875,0.0
86301.334035166,25.390625,-34.66796875,-27.83203125,-53.22265625,0.0
86301.338786666,30.76171875,-22.94921875,-20.99609375,-72.265625,0.0
86301.342692916,0.0,-17.08984375,-13.18359375,-95.21484375,0.0
86301.346599166,-26.3671875,-31.25,-15.13671875,-98.6328125,0.0
86301.350505416,-32.2265625,-29.78515625,-18.5546875,-119.62890625,0.0
86301.354411666,-36.1328125,-20.99609375,-35.64453125,-189.453125,0.0
86301.358317916,-53.22265625,-20.01953125,-59.5703125,-233.88671875,0.0
86301.362224166,-73.2421875,-0.48828125,-57.12890625,-218.75,0.0
86301.366130416,-109.86328125,14.6484375,-49.31640625,-224.609375,0.0
86301.370036666,-147.4609375,18.06640625,-56.15234375,-252.44140625,0.0
86301.373942916,-169.921875,11.71875,-46.38671875,-263.18359375,0.0
86301.377849166,-170.8984375,-2.44140625,-38.57421875,-244.62890625,0.0
86301.381755416,-171.875,-3.90625,-43.45703125,-235.3515625,0.0
86301.385475458,-163.57421875,1.953125,-41.015625,-263.18359375,0.0
86301.389381708,-125.9765625,13.671875,-45.8984375,-269.04296875,0.0
86301.393287958,-128.41796875,5.859375,-44.921875,-227.05078125,0.0
86301.397194208,-158.69140625,2.44140625,-26.85546875,-200.1953125,0.0
86301.401100458,-155.2734375,7.32421875,-17.08984375,-206.0546875,0.0
86301.405006708,-101.07421875,-7.8125,-16.6015625,-203.61328125,0.0
86301.408912958,-48.828125,-15.625,-19.53125,-186.03515625,0.0
86301.412819208,-25.87890625,-2.44140625,-23.4375,-150.87890625,0.0
86301.416725458,-25.87890625,-0.48828125,-18.06640625,-141.11328125,0.0
86301.420631708,-33.203125,-11.23046875,-2.44140625,-162.109375,0.0
86301.424537958,-60.546875,-14.16015625,-3.41796875,-145.5078125,0.0
86301.428444208,-54.19921875,-11.71875,-5.37109375,-114.74609375,0.0
86301.432097083,-63.4765625,-18.5546875,-2.44140625,-110.83984375,0.0
86301.436003333,-92.7734375,-21.484375,-4.8828125,-129.8828125,0.0
86301.439909583,-67.87109375,-26.3671875,-7.8125,-126.953125,0.0
86301.443815833,-34.1796875,-30.76171875,-10.7421875,-94.23828125,0.0
86301.447722083,-36.1328125,-19.53125,-7.8125,-68.359375,0.0
86301.451628333,-22.4609375,-13.671875,-10.25390625,-88.37890625,0.0
86301.455534583,-8.7890625,-22.94921875,-17.578125,-105.46875,0.0
86301.459440833,-32.71484375,-25.390625,-20.01953125,-64.453125,0.0
86301.463347083,-57.6171875,-16.11328125,-11.71875,-44.43359375,0.0
86301.467253333,-69.82421875,-20.5078125,-4.39453125,-62.5,0.0
86301.471159583,-56.15234375,-29.78515625,1.953125,-59.5703125,0.0
86301.475065833,-33.69140625,-32.71484375,5.37109375,-41.9921875,0.0
86301.4791355,-24.90234375,-33.203125,-1.46484375,-22.94921875,0.0
86301.48304175,-30.2734375,-32.2265625,-6.34765625,-1.46484375,0.0
86301.486948,-12.6953125,-26.85546875,-12.6953125,-21.97265625,0.0
86301.49085425,2.9296875,-29.78515625,-14.6484375,-60.546875,0.0
86301.4947605,4.8828125,-37.109375,-10.25390625,-44.43359375,0.0
86301.49866675,-10.7421875,-36.1328125,-7.32421875,-20.5078125,0.0
86301.502573,-18.06640625,-37.59765625,-8.7890625,-25.390625,0.0
86301.50647925,-20.01953125,-35.64453125,-7.8125,-31.73828125,0.0
86301.5103855,-4.8828125,-23.92578125,-3.90625,-18.5546875,0.0
86301.51429175,-11.71875,-22.4609375,-2.9296875,-0.48828125,0.0
86301.518198,-41.9921875,-36.62109375,2.44140625,-14.16015625,0.0
86301.52210425,-1.953125,-43.45703125,2.44140625,-32.71484375,0.0
86301.523891833,5.859375,-41.015625,-2.44140625,-28.80859375,0.0
86301.527798083,-29.296875,-39.0625,-7.32421875,-8.30078125,0.0
86301.531704333,-53.7109375,-33.69140625,-11.23046875,-0.9765625,0.0
86301.535610583,-26.3671875,-33.69140625,2.9296875,-15.625,0.0
86301.539516833,2.9296875,-33.203125,8.30078125,-10.25390625,0.0
86301.543423083,-31.25,-32.71484375,-5.37109375,12.6953125,0.0
86301.547329333,-71.77734375,-35.64453125,-7.8125,31.25,0.0
86301.551235583,-63.4765625,-33.203125,0.9765625,0.0,0.0
86301.555141833,-39.55078125,-34.1796875,1.953125,-24.4140625,0.0
86301.559048083,-40.52734375,-39.55078125,-8.7890625,2.44140625,0.0
86301.562954333,-52.734375,-43.9453125,-16.11328125,20.99609375,0.0
86301.566860583,-44.43359375,-40.0390625,-14.16015625,4.39453125,0.0
86301.604876208,-21.97265625,-38.0859375,-10.25390625,-12.6953125,0.0
86301.608782458,-17.578125,-34.66796875,-17.08984375,5.37109375,0.0
86301.598686166,-32.2265625,-24.90234375,-28.3203125,25.87890625,0.0
86301.602592416,-35.64453125,-26.3671875,-28.80859375,16.11328125,0.0
86301.606498666,-22.94921875,-35.64453125,-24.90234375,-22.4609375,0.0
86301.610404916,-15.625,-39.55078125,-26.3671875,-28.80859375,0.0
86301.614311166,-5.859375,-39.55078125,-20.01953125,-5.37109375,0.0
86301.618217416,-20.01953125,-44.921875,-14.16015625,-10.25390625,0.0
86301.622123666,2.44140625,-50.78125,-19.53125,-29.296875,0.0
86301.626029916,46.875,-49.8046875,-22.94921875,-21.484375,0.0
86301.629936166,23.4375,-48.33984375,-23.92578125,8.30078125,0.0
86301.633842416,-42.48046875,-54.6875,-30.2734375,16.6015625,0.0
86301.632766625,-61.03515625,-55.17578125,-30.76171875,2.9296875,0.0
86301.636672875,-51.26953125,-48.828125,-17.578125,-2.9296875,0.0
86301.640579125,-60.05859375,-42.48046875,-11.71875,19.04296875,0.0
86301.644485375,-79.58984375,-41.9921875,-11.71875,42.96875,0.0
86301.648391625,-38.0859375,-41.015625,-7.8125,19.04296875,0.0
86301.652297875,-16.11328125,-47.36328125,-14.6484375,-10.7421875,0.0
86301.656204125,-3.41796875,-54.19921875,-20.5078125,4.8828125,0.0
86301.660110375,-10.7421875,-41.50390625,-28.3203125,5.859375,0.0
86301.664016625,-66.40625,-32.71484375,-34.66796875,-28.3203125,0.0
86301.667922875,-33.203125,-28.80859375,-36.62109375,-39.55078125,0.0
86301.671829125,11.23046875,-22.94921875,-38.57421875,-26.3671875,0.0
86301.675735375,-13.671875,-25.87890625,-44.43359375,10.7421875,0.0
86301.678948125,-41.9921875,-27.83203125,-53.7109375,15.13671875,0.0
86301.682854375,0.48828125,-27.34375,-52.24609375,-13.18359375,0.0
86301.686760625,14.6484375,-18.5546875,-47.8515625,-13.671875,0.0
86301.690666875,10.7421875,-22.94921875,-55.6640625,5.37109375,0.0
86301.694573125,24.90234375,-31.73828125,-57.6171875,25.390625,0.0
86301.698479375,10.7421875,-26.3671875,-50.29296875,7.8125,0.0
86301.702385625,-4.39453125,-25.390625,-50.29296875,-13.671875,0.0
86301.706291875,0.9765625,-27.34375,-49.8046875,6.34765625,0.0
86301.710198125,-26.85546875,-33.203125,-49.8046875,15.625,0.0
86301.714104375,-48.828125,-31.25,-44.921875,-11.71875,0.0
86301.718010625,-30.2734375,-33.69140625,-38.0859375,-37.109375,0.0
86301.721916875,-9.27734375,-36.1328125,-31.73828125,-14.6484375,0.0
86301.725079041,-12.20703125,-30.2734375,-36.1328125,4.39453125,0.0
86301.728985291,-18.5546875,-34.66796875,-36.1328125,-15.625,0.0
86301.732891541,-25.390625,-48.828125,-32.71484375,-38.0859375,0.0
86301.736797791,-44.43359375,-53.7109375,-33.203125,-23.92578125,0.0
86301.740704041,-32.2265625,-50.78125,-38.0859375,3.90625,0.0
86301.744610291,-31.25,-47.8515625,-43.9453125,1.953125,0.0
86301.748516541,4.8828125,-33.69140625,-41.9921875,-35.15625,0.0
86301.752422791,6.8359375,-29.78515625,-46.875,-38.0859375,0.0
86301.756329041,-42.96875,-39.55078125,-52.734375,-11.23046875,0.0
86301.760235291,-65.4296875,-42.48046875,-45.41015625,-10.25390625,0.0
86301.764141541,-48.828125,-43.45703125,-44.921875,-33.69140625,0.0
86301.768047791,-15.625,-37.59765625,-48.33984375,-50.78125,0.0
86301.788838125,2.44140625,-33.203125,-44.43359375,-27.83203125,0.0
86301.774805666,-28.80859375,-35.64453125,-40.0390625,-4.8828125,0.0
86301.778711916,-51.7578125,-41.50390625,-39.0625,-20.99609375,0.0
86301.782618166,-31.25,-42.96875,-43.9453125,-39.0625,0.0
86301.786524416,-27.83203125,-38.57421875,-44.43359375,-30.2734375,0.0
86301.790430666,-25.87890625,-36.1328125,-37.59765625,-13.18359375,0.0
86301.794336916,-19.53125,-38.57421875,-36.62109375,-27.83203125,0.0
86301.798243166,-31.73828125,-44.921875,-39.0625,-50.78125,0.0
86301.802149416,-53.22265625,-47.8515625,-40.0390625,-34.66796875,0.0
86301.806055666,-58.10546875,-40.52734375,-46.875,-8.30078125,0.0
86301.809961916,-58.59375,-41.9921875,-42.96875,-11.23046875,0.0
86301.813868166,-25.87890625,-52.734375,-33.69140625,-19.04296875,0.0
86301.816673208,9.27734375,-49.8046875,-44.921875,-21.97265625,0.0
86301.820579458,4.39453125,-41.9921875,-46.38671875,-14.16015625,0.0
86301.824485708,-38.57421875,-44.43359375,-42.48046875,-4.8828125,0.0
86301.828391958,-60.546875,-41.015625,-37.59765625,-27.34375,0.0
86301.832298208,-55.17578125,-41.015625,-30.2734375,-42.48046875,0.0
86301.836204458,-43.45703125,-43.45703125,-32.71484375,-25.87890625,0.0
86301.840110708,-50.78125,-43.9453125,-30.2734375,-10.25390625,0.0
86301.844016958,-56.640625,-45.41015625,-26.85546875,-24.4140625,0.0
86301.847923208,-21.97265625,-45.8984375,-30.76171875,-54.19921875,0.0
86301.851829458,1.46484375,-44.921875,-30.76171875,-47.8515625,0.0
86301.855735708,-0.48828125,-42.96875,-33.69140625,-18.06640625,0.0
86301.859641958,-31.73828125,-46.38671875,-34.66796875,-24.90234375,0.0
86301.837185166,-43.45703125,-41.50390625,-27.34375,-56.15234375,0.0
86301.841091416,-31.25,-33.69140625,-38.57421875,-53.22265625,0.0
86301.844997666,-55.17578125,-34.66796875,-45.41015625,-33.203125,0.0
86301.848903916,-94.7265625,-44.43359375,-39.55078125,-36.62109375,0.0
86301.852810166,-72.265625,-49.8046875,-28.3203125,-53.7109375,0.0
86301.856716416,-35.15625,-43.9453125,-18.5546875,-53.22265625,0.0
86301.860622666,-33.69140625,-40.0390625,-21.97265625,-25.87890625,0.0
86301.864528916,-51.7578125,-46.875,-26.3671875,-19.04296875,0.0
86301.868435166,-41.50390625,-42.96875,-16.6015625,-54.19921875,0.0
86301.872341416,-2.44140625,-38.57421875,-24.4140625,-87.40234375,0.0
86301.876247666,-4.8828125,-46.875,-36.1328125,-69.3359375,0.0
86301.880153916,-51.26953125,-51.26953125,-24.90234375,-42.48046875,0.0
86301.9052985,-79.58984375,-47.36328125,-26.3671875,-50.78125,0.0
86301.90920475,-66.40625,-39.0625,-36.62109375,-62.98828125,0.0
86301.913111,-46.875,-36.62109375,-33.203125,-55.17578125,0.0
86301.91701725,-35.15625,-35.64453125,-32.2265625,-41.50390625,0.0
86301.9209235,-33.203125,-36.1328125,-34.66796875,-31.25,0.0
86301.92482975,-20.99609375,-50.29296875,-34.66796875,-52.734375,0.0
86301.928736,-1.46484375,-71.2890625,-40.52734375,-43.45703125,0.0
86301.93264225,-9.765625,-55.6640625,-34.66796875,-8.30078125,0.0
86301.9365485,-62.98828125,-32.2265625,-20.99609375,-19.53125,0.0
86301.94045475,-63.4765625,-39.0625,-26.3671875,-35.64453125,0.0
86301.944361,-20.99609375,-31.73828125,-34.1796875,-26.85546875,0.0
86301.94826725,13.671875,-27.34375,-31.25,10.7421875,0.0
86301.953093916,17.578125,-35.64453125,-35.64453125,12.20703125,0.0
86301.957000166,36.62109375,-34.66796875,-42.48046875,-42.48046875,0.0
86301.960906416,74.70703125,-41.015625,-43.9453125,-47.36328125,0.0
86301.964812666,62.01171875,-42.96875,-44.43359375,-14.16015625,0.0
86301.968718916,40.0390625,-33.69140625,-57.6171875,9.765625,0.0
86301.972625166,26.3671875,-30.2734375,-65.91796875,10.25390625,0.0
86301.976531416,8.30078125,-30.2734375,-55.17578125,-12.6953125,0.0
86301.980437666,14.16015625,-22.94921875,-40.52734375,-9.27734375,0.0
86301.984343916,29.78515625,-23.92578125,-47.36328125,14.6484375,0.0
86301.988250166,-2.9296875,-32.71484375,-62.5,17.08984375,0.0
86301.992156416,-2.9296875,-38.0859375,-51.26953125,-12.20703125,0.0
86301.996062666,4.8828125,-39.0625,-26.3671875,-2.44140625,0.0
86302.0017795,-7.8125,-39.0625,-20.01953125,30.76171875,0.0
86302.00568575,-25.390625,-33.203125,-30.2734375,25.390625,0.0
86302.009592,-14.16015625,-21.97265625,-39.0625,-16.11328125,0.0
86302.01349825,-0.9765625,-26.3671875,-40.52734375,-42.48046875,0.0
86302.0174045,1.953125,-40.0390625,-42.48046875,-16.6015625,0.0
86302.02131075,-4.8828125,-44.43359375,-46.875,0.48828125,0.0
86302.025217,-6.8359375,-33.203125,-39.55078125,-21.484375,0.0
86302.02912325,17.08984375,-31.25,-31.25,-52.734375,0.0
86302.0330295,14.6484375,-34.66796875,-28.80859375,-46.875,0.0
86302.03693575,11.23046875,-30.2734375,-19.04296875,-29.78515625,0.0
86302.040842,9.27734375,-21.97265625,-7.8125,-32.2265625,0.0
86302.04474825,6.8359375,-25.390625,-14.16015625,-53.7109375,0.0
86302.050300791,8.7890625,-29.296875,-21.97265625,-42.48046875,0.0
86302.054207041,19.04296875,-28.80859375,-21.97265625,-16.11328125,0.0
86302.058113291,25.390625,-34.1796875,-24.90234375,-18.06640625,0.0
86302.062019541,36.62109375,-37.59765625,-30.2734375,-43.45703125,0.0
86302.065925791,43.9453125,-30.2734375,-29.296875,-49.31640625,0.0
86302.069832041,-6.8359375,-30.76171875,-30.2734375,-26.85546875,0.0
86302.073738291,-74.70703125,-35.64453125,-28.3203125,-1.953125,0.0
86302.077644541,-46.38671875,-31.73828125,-24.4140625,-5.859375,0.0
86302.081550791,-31.25,-36.62109375,-35.64453125,-25.87890625,0.0
86302.085457041,-30.76171875,-34.66796875,-34.1796875,-17.08984375,0.0
86302.089363291,-32.71484375,-28.80859375,-19.53125,-18.5546875,0.0
86302.093269541,-51.7578125,-35.15625,-21.484375,-45.41015625,0.0
86302.097177625,-32.71484375,-36.62109375,-27.34375,-67.87109375,0.0
86302.101083875,-15.13671875,-25.87890625,-29.296875,-60.05859375,0.0
86302.104990125,-23.92578125,-31.25,-33.69140625,-41.50390625,0.0
86302.108896375,-34.66796875,-38.57421875,-36.62109375,-43.45703125,0.0
86302.112802625,-23.4375,-34.1796875,-31.25,-54.19921875,0.0
86302.116708875,-31.25,-32.2265625,-21.97265625,-48.828125,0.0
86302.120615125,-13.18359375,-30.76171875,-26.3671875,-23.92578125,0.0
86302.124521375,-22.94921875,-35.64453125,-38.0859375,-9.27734375,0.0
86302.128427625,-27.83203125,-31.25,-40.52734375,-40.0390625,0.0
86302.132333875,16.11328125,-22.94921875,-28.3203125,-68.359375,0.0
86302.136240125,34.1796875,-29.78515625,-14.6484375,-50.78125,0.0
86302.140146375,-34.1796875,-38.0859375,-20.01953125,-33.203125,0.0
86302.143127583,-108.88671875,-45.8984375,-27.83203125,-49.8046875,0.0
86302.147033833,-85.9375,-43.9453125,-20.99609375,-58.10546875,0.0
86302.150940083,-52.734375,-41.50390625,-19.53125,-40.52734375,0.0
86302.154846333,-47.8515625,-41.50390625,-34.1796875,-19.04296875,0.0
86302.158752583,-26.85546875,-33.203125,-37.109375,-6.34765625,0.0
86302.162658833,6.34765625,-28.3203125,-29.78515625,-25.390625,0.0
86302.166565083,-10.7421875,-40.0390625,-30.76171875,-44.43359375,0.0
86302.170471333,-37.59765625,-58.59375,-30.2734375,-4.39453125,0.0
86302.174377583,-38.0859375,-56.15234375,-23.4375,21.97265625,0.0
86302.178283833,-16.11328125,-53.22265625,-8.7890625,-0.48828125,0.0
86302.182190083,-8.30078125,-70.80078125,-5.37109375,-8.30078125,0.0
86302.186096333,-1.46484375,-79.1015625,-6.34765625,12.20703125,0.0
86302.188040916,-7.32421875,-76.66015625,-1.953125,30.2734375,0.0
86302.191947166,9.27734375,-66.40625,-1.953125,11.23046875,0.0
86302.195853416,70.3125,-63.96484375,-4.39453125,-5.37109375,0.0
86302.199759666,62.98828125,-71.77734375,-5.37109375,3.90625,0.0
86302.203665916,1.46484375,-69.82421875,-16.6015625,15.625,0.0
86302.207572166,-3.90625,-65.91796875,-24.90234375,9.27734375,0.0
86302.211478416,20.01953125,-51.26953125,-21.484375,-0.48828125,0.0
86302.215384666,10.7421875,-47.8515625,-14.6484375,16.11328125,0.0
86302.219290916,-11.23046875,-53.7109375,-1.953125,24.4140625,0.0
86302.223197166,-27.34375,-52.24609375,5.37109375,15.625,0.0
86302.227103416,-16.11328125,-53.7109375,-2.9296875,-2.44140625,0.0
86302.231009666,10.7421875,-53.22265625,-9.27734375,0.9765625,0.0
86302.253253375,2.9296875,-58.10546875,-2.44140625,22.94921875,0.0
86302.236068666,-25.87890625,-61.03515625,-1.46484375,26.85546875,0.0
86302.239974916,-38.0859375,-57.6171875,-6.8359375,4.8828125,0.0
86302.243881166,-31.73828125,-52.24609375,-7.32421875,-7.8125,0.0
86302.247787416,-30.76171875,-44.43359375,-11.23046875,11.71875,0.0
86302.251693666,-48.828125,-43.9453125,-18.06640625,23.4375,0.0
86302.255599916,-43.45703125,-45.8984375,-18.5546875,8.7890625,0.0
86302.259506166,-19.53125,-44.921875,-11.71875,-8.30078125,0.0
86302.263412416,1.953125,-44.43359375,-8.30078125,-2.44140625,0.0
86302.267318666,-8.30078125,-45.8984375,-20.99609375,13.671875,0.0
86302.271224916,-20.5078125,-39.55078125,-23.4375,9.765625,0.0
86302.275131166,2.44140625,-34.66796875,-17.08984375,-11.23046875,0.0
86302.278900333,14.16015625,-39.55078125,-28.3203125,-12.6953125,0.0
86302.282806583,17.578125,-44.43359375,-33.69140625,9.27734375,0.0
86302.286712833,-12.6953125,-43.45703125,-18.5546875,-2.44140625,0.0
86302.290619083,-34.1796875,-43.45703125,-7.8125,-40.52734375,0.0
86302.294525333,-19.53125,-47.8515625,-5.859375,-40.0390625,0.0
86302.298431583,-23.4375,-51.26953125,-10.7421875,-19.53125,0.0
86302.302337833,-48.33984375,-52.734375,-20.99609375,-10.25390625,0.0
86302.306244083,-51.26953125,-48.828125,-17.578125,-27.83203125,0.0
86302.310150333,-33.203125,-51.26953125,-22.94921875,-36.62109375,0.0
86302.314056583,-41.9921875,-62.5,-31.73828125,-4.39453125,0.0
86302.317962833,-85.44921875,-68.359375,-24.4140625,0.0,0.0
86302.321869083,-86.9140625,-61.5234375,-16.11328125,-22.4609375,0.0
86302.322333583,-69.82421875,-58.59375,-12.6953125,-27.34375,0.0
86302.326239833,-62.98828125,-65.4296875,-11.23046875,-9.765625,0.0
86302.330146083,-51.7578125,-57.12890625,-11.23046875,2.44140625,0.0
86302.334052333,-64.453125,-38.0859375,-13.671875,-12.6953125,0.0
86302.337958583,-48.828125,-41.015625,-10.25390625,-30.2734375,0.0
86302.341864833,-31.73828125,-50.78125,-16.11328125,-10.25390625,0.0
86302.345771083,-35.64453125,-45.41015625,-27.83203125,10.7421875,0.0
86302.349677333,-58.59375,-49.31640625,-26.3671875,-5.37109375,0.0
86302.353583583,-48.33984375,-58.10546875,-23.92578125,-31.25,0.0
86302.357489833,-20.01953125,-53.22265625,-32.2265625,-26.3671875,0.0
86302.361396083,-14.16015625,-48.33984375,-28.80859375,-11.23046875,0.0
86302.365302333,-39.55078125,-45.41015625,-25.390625,-10.25390625,0.0
86302.369124291,-39.0625,-45.8984375,-32.2265625,-36.62109375,0.0
86302.373030541,-19.53125,-47.36328125,-27.83203125,-53.22265625,0.0
86302.376936791,-14.6484375,-42.96875,-20.5078125,-25.390625,0.0
86302.380843041,-33.69140625,-39.0625,-20.01953125,-10.25390625,0.0
86302.384749291,-38.0859375,-41.015625,-32.2265625,-34.1796875,0.0
86302.388655541,-10.7421875,-39.55078125,-35.64453125,-47.36328125,0.0
86302.392561791,-10.7421875,-30.2734375,-22.94921875,-22.94921875,0.0
86302.396468041,-29.296875,-30.2734375,-18.06640625,-4.8828125,0.0
86302.400374291,-40.0390625,-40.0390625,-23.92578125,-21.97265625,0.0
86302.404280541,-44.43359375,-42.48046875,-25.87890625,-30.2734375,0.0
86302.408186791,-47.36328125,-35.15625,-21.97265625,-28.3203125,0.0
86302.412093041,-46.875,-38.0859375,-36.1328125,-20.01953125,0.0
86302.416159708,-72.75390625,-40.52734375,-47.36328125,-13.18359375,0.0
86302.420065958,-60.546875,-39.55078125,-35.15625,-27.34375,0.0
86302.423972208,-45.41015625,-39.55078125,-19.53125,-37.59765625,0.0
86302.427878458,-55.6640625,-37.109375,-12.6953125,-21.97265625,0.0
86302.431784708,-69.3359375,-41.9921875,-11.71875,-15.13671875,0.0
86302.435690958,-76.171875,-49.8046875,-16.11328125,-39.0625,0.0
86302.439597208,-55.6640625,-47.8515625,-20.99609375,-56.640625,0.0
86302.443503458,-19.53125,-34.66796875,-19.04296875,-41.9921875,0.0
86302.447409708,-20.99609375,-28.80859375,-36.1328125,-20.5078125,0.0
86302.451315958,-54.19921875,-33.69140625,-45.41015625,-39.55078125,0.0
86302.455222208,-40.52734375,-35.15625,-43.9453125,-65.4296875,0.0
86302.459128458,-27.83203125,-29.78515625,-39.0625,-44.43359375,0.0
86302.463463166,-48.828125,-31.73828125,-27.34375,-20.01953125,0.0
86302.467369416,-63.96484375,-39.0625,-26.3671875,-38.0859375,0.0
86302.471275666,-50.29296875,-43.45703125,-23.92578125,-66.40625,0.0
86302.475181916,-7.32421875,-48.33984375,-21.97265625,-51.26953125,0.0
86302.479088166,-18.06640625,-46.875,-26.85546875,-20.99609375,0.0
86302.482994416,-49.31640625,-38.0859375,-29.296875,-8.7890625,0.0
86302.486900666,-9.765625,-27.34375,-26.85546875,-29.296875,0.0
86302.490806916,20.5078125,-26.85546875,-27.83203125,-44.43359375,0.0
86302.494713166,10.25390625,-36.1328125,-33.69140625,-19.53125,0.0
86302.498619416,-18.5546875,-37.59765625,-26.3671875,-5.859375,0.0
86302.502525666,-52.24609375,-37.109375,-18.5546875,-32.2265625,0.0
86302.506431916,-90.33203125,-39.55078125,-18.06640625,-26.3671875,0.0
86302.51110225,-84.47265625,-39.55078125,-21.484375,9.765625,0.0
86302.5150085,-78.125,-37.109375,-26.85546875,2.9296875,0.0
86302.51891475,-69.3359375,-29.296875,-21.484375,-21.97265625,0.0
86302.522821,-37.109375,-26.3671875,-16.6015625,-36.62109375,0.0
86302.52672725,-13.671875,-40.52734375,-15.13671875,-30.2734375,0.0
86302.5306335,-6.34765625,-50.29296875,-27.34375,-18.06640625,0.0
86302.53453975,-32.71484375,-41.50390625,-29.78515625,-17.578125,0.0
86302.538446,-13.671875,-41.015625,-31.25,-27.34375,0.0
86302.54235225,17.08984375,-45.41015625,-33.69140625,-18.06640625,0.0
86302.5462585,-10.7421875,-37.59765625,-10.7421875,-1.46484375,0.0
86302.55016475,-78.125,-31.25,-10.25390625,-31.73828125,0.0
86302.554071,-107.91015625,-33.69140625,-18.5546875,-96.19140625,0.0
86302.559993958,-80.078125,-27.83203125,-23.4375,-129.39453125,0.0
86302.563900208,-83.49609375,-22.94921875,-35.64453125,-132.32421875,0.0
86302.567806458,-147.4609375,-29.296875,-41.9921875,-140.625,0.0
86302.571712708,-166.9921875,-31.25,-44.921875,-177.734375,0.0
86302.575618958,-137.20703125,-30.2734375,-36.62109375,-202.1484375,0.0
86302.579525208,-140.13671875,-26.3671875,-22.94921875,-188.4765625,0.0
86302.583431458,-193.84765625,-18.06640625,-16.6015625,-169.43359375,0.0
86302.587337708,-224.609375,-17.08984375,-21.484375,-153.80859375,0.0
86302.591243958,-200.68359375,-25.390625,-19.04296875,-167.48046875,0.0
86302.595150208,-195.3125,-33.69140625,-17.578125,-168.9453125,0.0
86302.599056458,-197.265625,-31.73828125,-18.5546875,-136.71875,0.0
86302.602962708,-157.71484375,-34.66796875,-13.18359375,-123.53515625,0.0
86302.604872666,-106.93359375,-29.296875,-16.11328125,-144.53125,0.0
86302.608778916,-83.984375,-18.5546875,-22.94921875,-133.30078125,0.0
86302.612685166,-89.35546875,-23.4375,-21.484375,-87.890625,0.0
86302.616591416,-126.46484375,-31.25,-21.484375,-69.82421875,0.0
86302.620497666,-135.25390625,-41.9921875,-31.73828125,-101.07421875,0.0
86302.624403916,-111.81640625,-40.52734375,-40.0390625,-115.234375,0.0
86302.628310166,-82.51953125,-31.73828125,-39.55078125,-79.58984375,0.0
86302.632216416,-85.44921875,-27.83203125,-28.80859375,-57.12890625,0.0
86302.636122666,-89.35546875,-26.3671875,-18.5546875,-65.91796875,0.0
86302.640028916,-48.828125,-28.80859375,-29.78515625,-77.63671875,0.0
86302.643935166,-45.8984375,-24.90234375,-40.0390625,-63.4765625,0.0
86302.647841416,-61.5234375,-29.78515625,-32.71484375,-31.73828125,0.0
86302.651312375,-64.94140625,-37.109375,-15.625,-38.0859375,0.0
86302.655218625,-55.6640625,-31.73828125,-22.4609375,-77.63671875,0.0
86302.659124875,-32.2265625,-26.85546875,-29.78515625,-78.125,0.0
86302.663031125,-19.04296875,-32.71484375,-22.4609375,-45.8984375,0.0
86302.666937375,-34.1796875,-31.25,-30.2734375,-30.2734375,0.0
86302.670843625,-45.41015625,-30.76171875,-38.0859375,-58.59375,0.0
86302.674749875,-60.05859375,-36.1328125,-41.50390625,-64.94140625,0.0
86302.678656125,-36.1328125,-23.92578125,-32.71484375,-41.015625,0.0
86302.682562375,-41.015625,-15.625,-20.01953125,-32.71484375,0.0
86302.686468625,-74.21875,-22.94921875,-23.92578125,-33.203125,0.0
86302.690374875,-41.9921875,-30.2734375,-26.85546875,-36.1328125,0.0
86302.694281125,-14.6484375,-31.73828125,-24.90234375,-27.83203125,0.0
86302.724590541,-34.1796875,-36.62109375,-31.25,-31.73828125,0.0
86302.728496791,-48.33984375,-39.0625,-29.296875,-38.0859375,0.0
86302.732403041,-35.15625,-30.2734375,-23.4375,-43.45703125,0.0
86302.736309291,-41.50390625,-28.3203125,-27.83203125,-41.015625,0.0
86302.740215541,-66.40625,-36.62109375,-20.5078125,-24.90234375,0.0
86302.744121791,-71.2890625,-45.41015625,-21.97265625,-28.80859375,0.0
86302.748028041,-53.7109375,-49.8046875,-40.0390625,-54.6875,0.0
86302.751934291,-28.80859375,-38.57421875,-36.62109375,-57.6171875,0.0
86302.755840541,-37.109375,-30.2734375,-22.4609375,-29.296875,0.0
86302.759746791,-71.2890625,-31.25,-21.97265625,-3.90625,0.0
86302.763653041,-61.03515625,-31.73828125,-22.4609375,-31.25,0.0
86302.767559291,-25.87890625,-33.203125,-26.3671875,-50.29296875,0.0
86302.79217525,-25.87890625,-34.66796875,-36.62109375,-29.296875,0.0
86302.778130666,-58.59375,-35.15625,-41.50390625,-23.92578125,0.0
86302.782036916,-48.828125,-36.1328125,-36.62109375,-42.48046875,0.0
86302.785943166,-39.0625,-36.1328125,-37.59765625,-72.265625,0.0
86302.789849416,-55.6640625,-39.55078125,-37.59765625,-64.453125,0.0
86302.793755666,-55.6640625,-47.8515625,-33.203125,-40.0390625,0.0
86302.797661916,-57.12890625,-49.8046875,-34.66796875,-45.41015625,0.0
86302.801568166,-41.015625,-54.19921875,-28.3203125,-56.640625,0.0
86302.805474416,-23.4375,-53.7109375,-33.203125,-45.41015625,0.0
86302.809380666,-23.4375,-48.33984375,-41.9921875,-27.34375,0.0
86302.813286916,-11.71875,-39.55078125,-31.25,-43.9453125,0.0
86302.817193166,15.625,-34.1796875,-28.3203125,-69.82421875,0.0
86302.796455125,5.859375,-33.203125,-33.69140625,-62.01171875,0.0
86302.800361375,-26.85546875,-25.390625,-34.66796875,-40.0390625,0.0
86302.804267625,-84.9609375,-23.4375,-33.203125,-28.80859375,0.0
86302.808173875,-94.23828125,-35.64453125,-26.85546875,-37.59765625,0.0
86302.812080125,-47.8515625,-42.48046875,-23.4375,-36.62109375,0.0
86302.815986375,-26.85546875,-43.9453125,-33.203125,-10.25390625,0.0
86302.819892625,-33.69140625,-32.71484375,-34.66796875,-1.46484375,0.0
86302.823798875,-41.9921875,-28.3203125,-29.296875,-30.2734375,0.0
86302.827705125,-46.38671875,-34.1796875,-29.296875,-40.0390625,0.0
86302.831611375,-47.8515625,-32.2265625,-22.4609375,-20.99609375,0.0
86302.835517625,-56.15234375,-27.83203125,-15.625,-9.765625,0.0
86302.839423875,-55.17578125,-33.69140625,-20.01953125,-12.20703125,0.0
86302.84117175,-20.99609375,-41.50390625,-29.78515625,-33.203125,0.0
86302.845078,-2.44140625,-34.66796875,-32.2265625,-32.71484375,0.0
86302.84898425,-12.6953125,-29.78515625,-26.85546875,-17.08984375,0.0
86302.8528905,-46.38671875,-29.78515625,-30.2734375,-20.99609375,0.0
86302.85679675,-45.41015625,-31.25,-33.69140625,-47.8515625,0.0
86302.860703,-25.87890625,-30.2734375,-32.2265625,-41.9921875,0.0
86302.86460925,-28.80859375,-30.2734375,-33.69140625,-21.97265625,0.0
86302.8685155,-21.484375,-24.90234375,-33.69140625,-20.99609375,0.0
86302.87242175,21.97265625,-20.5078125,-39.0625,-41.50390625,0.0
86302.876328,20.01953125,-28.3203125,-40.52734375,-59.08203125,0.0
86302.88023425,-21.97265625,-38.57421875,-39.55078125,-42.48046875,0.0
86302.8841405,-60.546875,-41.015625,-41.9921875,-24.4140625,0.0
86302.889514916,-92.28515625,-35.15625,-31.73828125,-45.8984375,0.0
86302.893421166,-65.4296875,-38.57421875,-22.4609375,-63.4765625,0.0
86302.897327416,-33.69140625,-42.96875,-22.94921875,-33.203125,0.0
86302.901233666,-49.8046875,-39.0625,-27.83203125,-12.6953125,0.0
86302.905139916,-63.4765625,-26.3671875,-25.87890625,-24.90234375,0.0
86302.909046166,-49.8046875,-23.4375,-27.34375,-44.921875,0.0
86302.912952416,-38.57421875,-32.2265625,-28.3203125,-31.25,0.0
86302.916858666,-24.90234375,-44.921875,-36.1328125,17.08984375,0.0
86302.920764916,-38.0859375,-48.33984375,-28.3203125,17.08984375,0.0
86302.924671166,-32.71484375,-40.52734375,-16.11328125,-28.80859375,0.0
86302.928577416,-14.16015625,-44.921875,-25.87890625,-31.25,0.0
86302.932483666,-7.8125,-47.36328125,-17.578125,-5.37109375,0.0
86302.952510791,-6.34765625,-44.43359375,-13.671875,-0.9765625,0.0
86302.956417041,23.4375,-43.9453125,-19.04296875,-29.296875,0.0
86302.946402541,60.05859375,-42.96875,-18.5546875,-34.66796875,0.0
86302.950308791,74.70703125,-41.9921875,-21.484375,1.953125,0.0
86302.954215041,66.89453125,-46.38671875,-23.92578125,34.1796875,0.0
86302.958121291,49.8046875,-50.29296875,-25.87890625,38.0859375,0.0
86302.962027541,43.9453125,-48.33984375,-31.25,24.4140625,0.0
86302.965933791,30.76171875,-41.015625,-36.1328125,47.36328125,0.0
86302.969840041,6.8359375,-34.66796875,-34.66796875,69.82421875,0.0
86302.973746291,-8.30078125,-41.015625,-35.64453125,55.17578125,0.0
86302.977652541,50.29296875,-41.015625,-40.0390625,42.96875,0.0
86302.981558791,69.3359375,-30.76171875,-37.109375,45.41015625,0.0
86303.002279083,36.62109375,-30.76171875,-24.90234375,54.6875,0.0
86302.988242083,4.8828125,-35.64453125,-24.90234375,54.6875,0.0
86302.992148333,6.8359375,-35.64453125,-28.3203125,30.76171875,0.0
86302.996054583,36.1328125,-30.2734375,-19.53125,21.484375,0.0
86302.999960833,28.80859375,-30.2734375,-16.11328125,34.66796875,0.0
86303.003867083,-1.953125,-35.15625,-19.53125,43.9453125,0.0
86303.007773333,9.765625,-38.57421875,-26.85546875,35.15625,0.0
86303.011679583,43.9453125,-32.2265625,-34.66796875,15.13671875,0.0
86303.015585833,39.0625,-20.5078125,-24.90234375,18.5546875,0.0
86303.019492083,12.20703125,-15.625,-19.04296875,33.69140625,0.0
86303.023398333,3.90625,-20.01953125,-26.3671875,21.484375,0.0
86303.027304583,34.66796875,-26.85546875,-25.87890625,1.953125,0.0
86303.030193541,62.5,-33.203125,-26.85546875,3.41796875,0.0
86303.034099791,54.6875,-37.109375,-31.73828125,9.27734375,0.0
86303.038006041,0.0,-37.59765625,-28.80859375,3.90625,0.0
86303.041912291,-0.48828125,-32.2265625,-25.87890625,-11.71875,0.0
86303.045818541,33.69140625,-26.3671875,-34.1796875,-8.7890625,0.0
86303.049724791,30.2734375,-25.87890625,-35.64453125,27.83203125,0.0
86303.053631041,-0.9765625,-33.69140625,-36.1328125,43.9453125,0.0
86303.057537291,-0.48828125,-39.0625,-27.34375,13.671875,0.0
86303.061443541,1.953125,-35.64453125,-15.625,-6.34765625,0.0
86303.065349791,-5.859375,-35.64453125,-13.671875,13.671875,0.0
86303.069256041,-10.25390625,-33.69140625,-11.71875,29.296875,0.0
86303.073162291,-17.08984375,-24.90234375,-14.6484375,3.41796875,0.0
86303.072176583,-16.11328125,-27.34375,-24.90234375,-29.296875,0.0
86303.076082833,0.0,-32.71484375,-28.80859375,-24.4140625,0.0
86303.079989083,-6.8359375,-27.83203125,-21.484375,0.0,0.0
86303.083895333,-19.53125,-25.390625,-22.4609375,-6.8359375,0.0
86303.087801583,14.16015625,-28.80859375,-28.80859375,-41.9921875,0.0
86303.091707833,21.484375,-33.69140625,-34.66796875,-35.15625,0.0
86303.095614083,-6.8359375,-33.203125,-36.1328125,-2.44140625,0.0
86303.099520333,-37.59765625,-28.80859375,-29.296875,-8.7890625,0.0
86303.103426583,-15.625,-30.2734375,-29.78515625,-36.1328125,0.0
86303.107332833,7.8125,-31.73828125,-33.69140625,-32.2265625,0.0
86303.111239083,-14.6484375,-31.25,-27.83203125,-1.953125,0.0
86303.115145333,-68.359375,-32.2265625,-24.90234375,4.39453125,0.0
86303.116215041,-76.66015625,-33.69140625,-20.99609375,-23.4375,0.0
86303.120121291,-38.57421875,-32.2265625,-19.04296875,-37.59765625,0.0
86303.124027541,-14.6484375,-25.87890625,-22.94921875,-22.94921875,0.0
86303.127933791,-25.390625,-18.5546875,-15.13671875,-14.16015625,0.0
86303.131840041,-30.2734375,-24.4140625,-21.484375,-34.66796875,0.0
86303.135746291,5.37109375,-35.64453125,-32.2265625,-50.29296875,0.0
86303.139652541,12.6953125,-38.57421875,-29.78515625,-33.203125,0.0
86303.143558791,-18.06640625,-36.62109375,-27.83203125,-15.625,0.0
86303.147465041,-24.4140625,-34.66796875,-27.34375,-20.5078125,0.0
86303.151371291,-4.8828125,-26.85546875,-29.78515625,-34.1796875,0.0
86303.155277541,-13.18359375,-17.578125,-28.3203125,-34.1796875,0.0
86303.159183791,-32.2265625,-25.390625,-24.90234375,-15.625,0.0
86303.190597291,-53.22265625,-43.9453125,-27.34375,0.9765625,0.0
86303.194503541,-57.12890625,-43.9453125,-24.90234375,-18.06640625,0.0
86303.198409791,-42.96875,-34.66796875,-22.94921875,-43.45703125,0.0
86303.202316041,-33.203125,-34.66796875,-32.71484375,-30.2734375,0.0
86303.206222291,-49.8046875,-31.25,-33.203125,-4.39453125,0.0
86303.210128541,-47.8515625,-31.25,-28.3203125,-29.78515625,0.0
86303.214034791,-10.7421875,-28.80859375,-23.92578125,-48.828125,0.0
86303.217941041,9.765625,-23.4375,-20.99609375,-26.3671875,0.0
86303.221847291,-17.08984375,-35.64453125,-42.96875,-12.20703125,0.0
86303.225753541,-32.71484375,-49.8046875,-51.7578125,-28.80859375,0.0
86303.229659791,-13.671875,-42.48046875,-32.71484375,-48.33984375,0.0
86303.233566041,-16.11328125,-33.203125,-22.94921875,-28.80859375,0.0
86303.213591708,-25.87890625,-32.71484375,-27.34375,-14.16015625,0.0
86303.217497958,-51.7578125,-26.3671875,-30.2734375,-17.08984375,0.0
86303.221404208,-41.50390625,-22.94921875,-31.25,-28.3203125,0.0
86303.225310458,-23.4375,-28.80859375,-28.3203125,-28.3203125,0.0
86303.229216708,-29.78515625,-37.109375,-26.3671875,-15.13671875,0.0
86303.233122958,-51.7578125,-46.38671875,-27.83203125,-12.20703125,0.0
86303.237029208,-46.38671875,-46.875,-20.01953125,-29.78515625,0.0
86303.240935458,-29.78515625,-41.015625,-16.11328125,-34.1796875,0.0
86303.244841708,-41.015625,-38.0859375,-19.04296875,-12.20703125,0.0
86303.248747958,-57.6171875,-36.62109375,-17.08984375,2.44140625,0.0
86303.252654208,-46.875,-28.3203125,-22.94921875,-15.625,0.0
86303.256560458,-27.34375,-30.2734375,-35.64453125,-42.48046875,0.0
86303.257551708,-23.92578125,-28.80859375,-36.1328125,-30.76171875,0.0
86303.261457958,-38.57421875,-16.11328125,-27.34375,-15.13671875,0.0
86303.265364208,-43.45703125,-25.87890625,-29.78515625,-22.94921875,0.0
86303.269270458,-21.484375,-40.0390625,-35.15625,-37.109375,0.0
86303.273176708,-8.30078125,-41.9921875,-26.3671875,-22.4609375,0.0
86303.277082958,-12.6953125,-39.0625,-23.92578125,-10.25390625,0.0
86303.280989208,-19.53125,-33.203125,-29.78515625,-27.83203125,0.0
86303.284895458,5.37109375,-34.1796875,-36.62109375,-62.5,0.0
86303.288801708,32.2265625,-29.78515625,-38.57421875,-70.3125,0.0
86303.292707958,36.1328125,-27.34375,-33.69140625,-42.96875,0.0
86303.296614208,-32.71484375,-37.109375,-38.0859375,-17.08984375,0.0
86303.300520458,-60.546875,-37.59765625,-32.2265625,-22.94921875,0.0
86303.300546708,-38.0859375,-37.109375,-26.3671875,-31.73828125,0.0
86303.304452958,-47.8515625,-36.62109375,-27.34375,-17.08984375,0.0
86303.308359208,-57.6171875,-39.0625,-25.390625,-0.9765625,0.0
86303.312265458,-60.05859375,-37.59765625,-19.04296875,-15.13671875,0.0
86303.316171708,-53.7109375,-30.76171875,-13.671875,-44.43359375,0.0
86303.320077958,-25.87890625,-25.87890625,-21.484375,-40.0390625,0.0
86303.323984208,-14.16015625,-21.484375,-24.90234375,-17.08984375,0.0
86303.327890458,-28.80859375,-26.3671875,-27.34375,-21.97265625,0.0
86303.331796708,-14.16015625,-30.76171875,-29.78515625,-48.828125,0.0
86303.335702958,-8.7890625,-29.78515625,-28.3203125,-42.96875,0.0
86303.339609208,-37.109375,-28.3203125,-36.62109375,-9.27734375,0.0
86303.343515458,-68.84765625,-32.2265625,-37.109375,-5.859375,0.0
86303.347177083,-49.8046875,-38.57421875,-32.2265625,-34.66796875,0.0
86303.351083333,-23.4375,-37.59765625,-26.3671875,-42.96875,0.0
86303.354989583,-10.7421875,-30.2734375,-27.34375,-26.3671875,0.0
86303.358895833,-20.01953125,-32.71484375,-35.64453125,-27.34375,0.0
86303.362802083,-21.97265625,-36.62109375,-34.66796875,-47.36328125,0.0
86303.366708333,0.48828125,-29.296875,-31.73828125,-48.828125,0.0
86303.370614583,28.80859375,-26.3671875,-36.62109375,-11.71875,0.0
86303.374520833,28.80859375,-17.08984375,-34.1796875,7.8125,0.0
86303.378427083,-22.4609375,-13.671875,-16.6015625,-17.578125,0.0
86303.382333333,-50.29296875,-22.4609375,-19.04296875,-33.69140625,0.0
86303.386239583,-35.64453125,-19.04296875,-28.80859375,-15.625,0.0
86303.390145833,-26.85546875,-25.390625,-27.83203125,2.44140625,0.0
86303.437304041,-35.64453125,-33.69140625,-22.94921875,-15.13671875,0.0
86303.423284666,-13.671875,-31.25,-31.73828125,-40.0390625,0.0
86303.427190916,8.30078125,-32.2265625,-46.38671875,-28.3203125,0.0
86303.431097166,-33.203125,-34.66796875,-43.45703125,-7.32421875,0.0
86303.435003416,-82.03125,-29.296875,-41.015625,-7.32421875,0.0
86303.438909666,-52.24609375,-35.64453125,-47.8515625,-30.76171875,0.0
86303.442815916,-32.2265625,-41.50390625,-41.50390625,-31.73828125,0.0
86303.446722166,-42.48046875,-29.296875,-28.80859375,-13.671875,0.0
86303.450628416,-54.6875,-31.73828125,-28.3203125,-7.32421875,0.0
86303.454534666,-38.0859375,-38.0859375,-35.15625,-22.94921875,0.0
86303.458440916,-14.6484375,-37.109375,-37.59765625,-42.96875,0.0
86303.462347166,-20.99609375,-36.1328125,-40.52734375,-38.0859375,0.0
86303.463949416,-41.9921875,-35.64453125,-41.9921875,-33.69140625,0.0
86303.467855666,-44.921875,-36.62109375,-44.43359375,-40.52734375,0.0
86303.471761916,-11.71875,-32.71484375,-40.0390625,-57.6171875,0.0
86303.475668166,9.27734375,-28.3203125,-40.52734375,-64.453125,0.0
86303.479574416,2.9296875,-32.2265625,-51.26953125,-42.48046875,0.0
86303.483480666,-37.59765625,-36.62109375,-53.7109375,-19.04296875,0.0
86303.487386916,-50.29296875,-33.203125,-43.9453125,-37.109375,0.0
86303.491293166,-29.78515625,-26.85546875,-30.2734375,-53.22265625,0.0
86303.495199416,-23.4375,-28.80859375,-29.78515625,-31.73828125,0.0
86303.499105666,-26.85546875,-31.73828125,-38.0859375,-17.08984375,0.0
86303.503011916,-18.06640625,-29.296875,-30.2734375,-40.0390625,0.0
86303.506918166,-14.16015625,-26.85546875,-19.53125,-52.24609375,0.0
86303.528429333,3.90625,-30.76171875,-26.3671875,-30.2734375,0.0
86303.512753333,-16.11328125,-34.66796875,-32.2265625,-14.6484375,0.0
86303.516659583,-60.546875,-38.0859375,-37.59765625,-34.1796875,0.0
86303.520565833,-55.17578125,-40.0390625,-41.9921875,-45.8984375,0.0
86303.524472083,-36.62109375,-36.62109375,-45.8984375,-31.73828125,0.0
86303.528378333,-22.4609375,-32.71484375,-43.45703125,-20.99609375,0.0
86303.532284583,-36.62109375,-26.3671875,-33.203125,-28.3203125,0.0
86303.536190833,-44.921875,-18.06640625,-24.90234375,-41.015625,0.0
86303.540097083,-37.109375,-28.3203125,-28.3203125,-30.2734375,0.0
86303.544003333,-28.3203125,-39.0625,-41.50390625,-11.71875,0.0
86303.547909583,-41.9921875,-37.109375,-43.45703125,-15.13671875,0.0
86303.551815833,-27.83203125,-34.66796875,-34.1796875,-33.69140625,0.0
86303.569255291,9.765625,-30.76171875,-37.59765625,-34.1796875,0.0
86303.573161541,9.27734375,-24.90234375,-41.9921875,-9.765625,0.0
86303.56302975,-20.99609375,-13.671875,-26.85546875,0.9765625,0.0
86303.566936,-27.34375,-18.5546875,-26.3671875,-26.3671875,0.0
86303.57084225,-16.11328125,-26.85546875,-33.203125,-43.45703125,0.0
86303.5747485,-23.4375,-31.73828125,-27.83203125,-14.6484375,0.0
86303.57865475,-52.24609375,-30.2734375,-27.34375,3.90625,0.0
86303.582561,-43.45703125,-25.87890625,-29.296875,-8.7890625,0.0
86303.58646725,-6.8359375,-24.90234375,-25.390625,-21.484375,0.0
86303.5903735,-4.8828125,-19.53125,-22.94921875,-30.2734375,0.0
86303.59427975,-14.16015625,-17.578125,-21.484375,-38.0859375,0.0
86303.598186,-18.06640625,-22.4609375,-24.90234375,-45.41015625,0.0
86303.618894125,-5.37109375,-23.4375,-27.34375,-56.640625,0.0
86303.603005083,6.34765625,-30.2734375,-24.4140625,-50.78125,0.0
86303.606911333,-8.30078125,-34.1796875,-28.3203125,-30.76171875,0.0
86303.610817583,-33.69140625,-31.25,-34.1796875,-20.99609375,0.0
86303.614723833,-41.015625,-26.85546875,-28.3203125,-37.59765625,0.0
86303.618630083,-44.921875,-30.2734375,-26.85546875,-49.31640625,0.0
86303.622536333,-53.7109375,-39.55078125,-27.83203125,-33.203125,0.0
86303.626442583,-79.58984375,-34.66796875,-24.4140625,-12.20703125,0.0
86303.630348833,-69.82421875,-27.34375,-24.4140625,-25.87890625,0.0
86303.634255083,-55.6640625,-33.69140625,-29.78515625,-48.33984375,0.0
86303.638161333,-47.36328125,-37.59765625,-29.78515625,-42.48046875,0.0
86303.642067583,-41.50390625,-41.50390625,-27.34375,-23.92578125,0.0
86303.646891,-43.45703125,-41.50390625,-31.73828125,-31.73828125,0.0
86303.65079725,-23.4375,-38.0859375,-25.390625,-49.31640625,0.0
86303.6547035,-24.4140625,-34.66796875,-15.625,-37.59765625,0.0
86303.65860975,-37.59765625,-38.57421875,-21.97265625,-14.6484375,0.0
86303.662516,-36.62109375,-41.015625,-24.90234375,-20.99609375,0.0
86303.66642225,-12.6953125,-36.62109375,-30.76171875,-51.26953125,0.0
86303.6703285,4.39453125,-27.83203125,-34.1796875,-50.29296875,0.0
86303.67423475,-9.27734375,-28.3203125,-33.203125,-17.08984375,0.0
86303.678141,-7.8125,-29.296875,-25.87890625,-6.34765625,0.0
86303.68204725,7.8125,-26.3671875,-18.06640625,-39.55078125,0.0
86303.6859535,-20.99609375,-32.71484375,-33.69140625,-50.29296875,0.0
86303.68985975,-41.50390625,-37.109375,-46.38671875,-30.2734375,0.0
86303.667278958,-55.17578125,-33.69140625,-41.9921875,-22.94921875,0.0
86303.671185208,-57.6171875,-28.80859375,-31.73828125,-36.1328125,0.0
86303.675091458,-40.0390625,-26.85546875,-30.76171875,-46.875,0.0
86303.678997708,-18.5546875,-24.90234375,-31.73828125,-33.203125,0.0
86303.682903958,-28.3203125,-23.4375,-33.203125,-17.578125,0.0
86303.686810208,-53.7109375,-29.296875,-31.25,-32.2265625,0.0
86303.690716458,-32.71484375,-39.55078125,-27.83203125,-49.8046875,0.0
86303.694622708,-26.85546875,-34.1796875,-23.92578125,-32.71484375,0.0
86303.698528958,-44.43359375,-31.25,-17.578125,-14.16015625,0.0
86303.702435208,-48.33984375,-30.76171875,-18.5546875,-13.671875,0.0
86303.706341458,-19.53125,-29.296875,-24.90234375,-23.92578125,0.0
86303.710247708,-30.76171875,-36.1328125,-30.2734375,-27.83203125,0.0
86303.733739041,-43.9453125,-34.1796875,-29.296875,-16.6015625,0.0
86303.737645291,-41.015625,-26.85546875,-28.3203125,-19.53125,0.0
86303.741551541,-28.80859375,-26.3671875,-21.97265625,-44.921875,0.0
86303.745457791,-18.5546875,-33.203125,-21.97265625,-54.19921875,0.0
86303.749364041,-26.85546875,-42.96875,-22.94921875,-36.1328125,0.0
86303.753270291,-42.48046875,-41.9921875,-17.08984375,-20.01953125,0.0
86303.757176541,-48.828125,-35.15625,-24.90234375,-37.59765625,0.0
86303.761082791,-14.16015625,-31.73828125,-33.69140625,-60.546875,0.0
86303.764989041,1.46484375,-35.64453125,-29.296875,-49.31640625,0.0
86303.768895291,-20.99609375,-39.55078125,-32.2265625,-29.78515625,0.0
86303.772801541,-33.203125,-31.25,-27.83203125,-31.25,0.0
86303.776707791,-16.11328125,-25.390625,-20.99609375,-44.921875,0.0
86303.781251,-33.203125,-28.3203125,-23.4375,-46.38671875,0.0
86303.78515725,-46.875,-33.69140625,-27.83203125,-25.390625,0.0
86303.7890635,-33.203125,-30.2734375,-37.109375,-15.625,0.0
86303.79296975,-6.34765625,-23.92578125,-37.109375,-41.015625,0.0
86303.796876,-4.39453125,-26.85546875,-28.3203125,-41.015625,0.0
86303.80078225,-34.66796875,-33.69140625,-32.2265625,-16.11328125,0.0
86303.8046885,-62.98828125,-38.57421875,-37.59765625,-13.18359375,0.0
86303.80859475,-56.15234375,-30.2734375,-30.2734375,-37.59765625,0.0
86303.812501,-29.78515625,-23.92578125,-22.4609375,-47.36328125,0.0
86303.81640725,-29.78515625,-19.04296875,-24.4140625,-29.296875,0.0
86303.8203135,-40.0390625,-21.484375,-26.3671875,-21.97265625,0.0
86303.82421975,-22.94921875,-22.94921875,-21.97265625,-32.2265625,0.0
86303.823458333,-6.8359375,-25.390625,-26.3671875,-39.55078125,0.0
86303.827364583,-13.18359375,-41.9921875,-39.55078125,-29.296875,0.0
86303.831270833,-17.578125,-45.8984375,-34.1796875,-15.13671875,0.0
86303.835177083,-46.38671875,-39.0625,-30.76171875,-19.53125,0.0
86303.839083333,-25.390625,-37.59765625,-28.80859375,-30.2734375,0.0
86303.842989583,-6.34765625,-36.62109375,-21.97265625,-20.01953125,0.0
86303.846895833,-16.11328125,-28.80859375,-24.90234375,-5.37109375,0.0
86303.850802083,-27.83203125,-24.4140625,-22.4609375,-7.32421875,0.0
86303.854708333,-28.80859375,-29.78515625,-18.5546875,-23.92578125,0.0
86303.858614583,-18.06640625,-37.109375,-20.5078125,-29.296875,0.0
86303.862520833,-21.484375,-34.1796875,-19.04296875,-13.671875,0.0
86303.866427083,-52.734375,-32.71484375,-14.6484375,-10.7421875,0.0
86303.870241166,-53.7109375,-31.25,-15.625,-34.1796875,0.0
86303.874147416,-23.92578125,-27.34375,-16.6015625,-50.78125,0.0
86303.878053666,-6.8359375,-25.87890625,-19.53125,-30.2734375,0.0
86303.881959916,-22.4609375,-21.484375,-24.90234375,-3.90625,0.0
86303.885866166,-34.66796875,-25.390625,-35.15625,-16.6015625,0.0
86303.889772416,-20.5078125,-35.15625,-40.0390625,-42.48046875,0.0
86303.893678666,-16.6015625,-28.3203125,-32.2265625,-31.73828125,0.0
86303.897584916,-13.671875,-21.484375,-26.85546875,-13.671875,0.0
86303.901491166,-37.59765625,-25.87890625,-27.34375,-14.16015625,0.0
86303.905397416,-33.203125,-31.25,-28.80859375,-29.296875,0.0
86303.909303666,-25.390625,-37.109375,-33.69140625,-33.203125,0.0
86303.913209916,-39.55078125,-41.015625,-35.15625,-18.06640625,0.0
86303.913782666,-53.22265625,-42.48046875,-35.15625,-32.71484375,0.0
86303.917688916,-32.71484375,-38.57421875,-36.1328125,-68.359375,0.0
86303.921595166,-30.2734375,-32.71484375,-34.1796875,-58.59375,0.0
86303.925501416,-47.36328125,-25.87890625,-25.87890625,-18.06640625,0.0
86303.929407666,-52.734375,-20.5078125,-27.34375,-5.37109375,0.0
86303.933313916,-42.48046875,-21.484375,-28.80859375,-21.97265625,0.0
86303.937220166,-21.484375,-28.80859375,-26.85546875,-34.1796875,0.0
86303.941126416,-15.625,-39.0625,-28.3203125,-30.2734375,0.0
86303.945032666,-35.64453125,-45.8984375,-38.0859375,-8.30078125,0.0
86303.948938916,-65.4296875,-39.0625,-39.55078125,-12.20703125,0.0
86303.952845166,-36.62109375,-28.80859375,-27.34375,-41.015625,0.0
86303.956751416,3.41796875,-23.92578125,-25.87890625,-32.2265625,0.0
86303.961369833,-10.25390625,-17.578125,-32.71484375,-6.34765625,0.0
86303.965276083,-53.22265625,-18.5546875,-40.0390625,-5.37109375,0.0
86303.969182333,-33.69140625,-19.04296875,-34.1796875,-37.59765625,0.0
86303.973088583,-9.765625,-26.3671875,-38.57421875,-46.875,0.0
86303.976994833,-7.8125,-35.64453125,-40.0390625,-30.2734375,0.0
86303.980901083,-21.97265625,-32.2265625,-35.15625,-35.64453125,0.0
86303.984807333,-21.97265625,-24.90234375,-32.2265625,-57.12890625,0.0
86303.988713583,-30.2734375,-30.2734375,-33.203125,-63.96484375,0.0
86303.992619833,-46.38671875,-39.0625,-37.109375,-46.38671875,0.0
86303.996526083,-41.50390625,-29.296875,-29.296875,-36.1328125,0.0
86304.000432333,-58.59375,-24.90234375,-27.83203125,-50.78125,0.0
86304.004338583,-71.2890625,-31.73828125,-31.73828125,-62.01171875,0.0
86304.008412875,-72.265625,-31.25,-30.76171875,-44.43359375,0.0
86304.012319125,-61.5234375,-19.53125,-24.90234375,-17.08984375,0.0
86304.016225375,-55.6640625,-20.5078125,-25.390625,-17.578125,0.0
86304.020131625,-41.015625,-26.3671875,-32.71484375,-31.73828125,0.0
86304.024037875,-21.97265625,-22.94921875,-38.57421875,-33.69140625,0.0
86304.027944125,-24.4140625,-19.53125,-45.8984375,-20.99609375,0.0
86304.031850375,-48.828125,-24.4140625,-41.015625,-15.13671875,0.0
86304.035756625,-20.99609375,-31.25,-38.0859375,-33.203125,0.0
86304.039662875,5.859375,-27.83203125,-36.62109375,-38.57421875,0.0
86304.043569125,-24.90234375,-25.87890625,-25.390625,-18.5546875,0.0
86304.047475375,-53.7109375,-30.2734375,-22.94921875,-6.34765625,0.0
86304.051381625,-40.52734375,-23.4375,-20.01953125,-31.73828125,0.0
86304.056370125,-14.16015625,-25.390625,-21.484375,-50.78125,0.0
86304.060276375,-12.6953125,-39.0625,-22.94921875,-30.2734375,0.0
86304.064182625,-28.3203125,-40.52734375,-21.484375,-8.7890625,0.0
86304.068088875,-21.97265625,-35.64453125,-32.71484375,-35.64453125,0.0
86304.071995125,1.953125,-25.390625,-37.59765625,-59.5703125,0.0
86304.075901375,10.25390625,-21.97265625,-37.59765625,-42.96875,0.0
86304.079807625,-9.765625,-22.94921875,-36.62109375,-27.83203125,0.0
86304.083713875,-54.19921875,-21.97265625,-36.1328125,-27.83203125,0.0
86304.087620125,-48.33984375,-22.94921875,-24.4140625,-52.734375,0.0
86304.091526375,-47.36328125,-29.78515625,-16.11328125,-54.19921875,0.0
86304.095432625,-58.10546875,-37.109375,-25.390625,-23.4375,0.0
86304.099338875,-70.80078125,-36.1328125,-21.97265625,-11.71875,0.0
86304.103180166,-58.10546875,-32.71484375,-12.20703125,-35.15625,0.0
86304.107086416,-48.828125,-33.203125,-20.01953125,-45.8984375,0.0
86304.110992666,-43.45703125,-40.52734375,-32.71484375,-20.5078125,0.0
86304.114898916,-59.5703125,-37.59765625,-34.1796875,-9.27734375,0.0
86304.118805166,-55.17578125,-31.73828125,-33.69140625,-25.390625,0.0
86304.122711416,-27.34375,-36.62109375,-35.64453125,-39.0625,0.0
86304.126617666,-16.11328125,-40.0390625,-33.203125,-7.32421875,0.0
86304.130523916,-40.0390625,-34.1796875,-26.3671875,13.671875,0.0
86304.134430166,-43.45703125,-32.71484375,-21.484375,-21.97265625,0.0
86304.138336416,-5.37109375,-30.76171875,-25.390625,-36.1328125,0.0
86304.142242666,-3.90625,-28.80859375,-21.484375,-26.3671875,0.0
86304.146148916,-5.859375,-24.4140625,-22.4609375,-12.20703125,0.0
86304.1458595,10.7421875,-19.04296875,-27.34375,-8.7890625,0.0
86304.14976575,46.38671875,-24.4140625,-27.34375,-36.62109375,0.0
86304.153672,27.34375,-21.484375,-29.296875,-40.0390625,0.0
86304.15757825,-38.0859375,-18.5546875,-24.90234375,-12.20703125,0.0
86304.1614845,-65.4296875,-27.34375,-22.4609375,-18.06640625,0.0
86304.16539075,-50.29296875,-32.71484375,-27.83203125,-45.41015625,0.0
86304.169297,-26.3671875,-34.1796875,-37.59765625,-34.66796875,0.0
86304.17320325,-13.671875,-28.80859375,-34.1796875,-15.13671875,0.0
86304.1771095,-38.0859375,-30.76171875,-27.83203125,-15.13671875,0.0
86304.18101575,-37.109375,-40.0390625,-27.83203125,-32.2265625,0.0
86304.184922,-28.80859375,-36.62109375,-28.80859375,-45.41015625,0.0
86304.18882825,-44.921875,-29.78515625,-30.2734375,-30.76171875,0.0
86304.191460041,-53.22265625,-28.80859375,-29.296875,-10.7421875,0.0
86304.195366291,-70.80078125,-39.0625,-29.296875,-23.92578125,0.0
86304.199272541,-48.828125,-42.48046875,-28.3203125,-44.921875,0.0
86304.203178791,-16.11328125,-43.45703125,-31.73828125,-41.9921875,0.0
86304.207085041,-16.11328125,-43.9453125,-39.55078125,-26.85546875,0.0
86304.210991291,-36.1328125,-42.96875,-41.015625,-15.13671875,0.0
86304.214897541,-53.22265625,-41.015625,-38.0859375,-34.66796875,0.0
86304.218803791,-49.8046875,-32.71484375,-31.25,-49.31640625,0.0
86304.222710041,-38.0859375,-25.87890625,-25.87890625,-26.3671875,0.0
86304.226616291,-61.5234375,-27.83203125,-23.92578125,-14.6484375,0.0
86304.230522541,-45.8984375,-29.296875,-20.5078125,-39.55078125,0.0
86304.234428791,-15.13671875,-25.87890625,-20.01953125,-47.36328125,0.0
86304.237263458,-13.671875,-28.3203125,-25.87890625,-25.87890625,0.0
86304.241169708,-40.0390625,-32.2265625,-21.97265625,-13.18359375,0.0
86304.245075958,-47.36328125,-30.2734375,-20.99609375,-20.5078125,0.0
86304.248982208,-16.11328125,-26.3671875,-25.390625,-42.96875,0.0
86304.252888458,7.32421875,-29.296875,-21.484375,-42.96875,0.0
86304.256794708,-23.4375,-40.52734375,-15.625,-28.3203125,0.0
86304.260700958,-69.3359375,-41.015625,-13.18359375,-29.78515625,0.0
86304.264607208,-47.8515625,-29.78515625,-14.6484375,-47.36328125,0.0
86304.268513458,-25.390625,-29.296875,-21.484375,-44.921875,0.0
86304.272419708,-28.3203125,-39.55078125,-28.3203125,-19.53125,0.0
86304.276325958,-51.26953125,-34.66796875,-21.97265625,-21.484375,0.0
86304.280232208,-41.015625,-28.3203125,-14.16015625,-36.1328125,0.0
86304.282439041,-11.71875,-26.85546875,-21.484375,-25.87890625,0.0
86304.286345291,-10.25390625,-29.78515625,-27.83203125,-8.7890625,0.0
86304.290251541,-43.45703125,-39.0625,-18.06640625,-14.6484375,0.0
86304.294157791,-51.26953125,-40.0390625,-15.13671875,-34.66796875,0.0
86304.298064041,-17.08984375,-37.59765625,-24.4140625,-46.875,0.0
86304.301970291,-7.32421875,-39.0625,-30.76171875,-26.85546875,0.0
86304.305876541,-27.83203125,-39.55078125,-28.80859375,1.46484375,0.0
86304.309782791,-33.69140625,-31.73828125,-22.94921875,-15.13671875,0.0
86304.313689041,-0.9765625,-24.90234375,-29.296875,-35.15625,0.0
86304.317595291,8.30078125,-28.3203125,-31.25,-21.484375,0.0
86304.321501541,1.46484375,-22.94921875,-22.94921875,-20.99609375,0.0
86304.325407791,7.32421875,-20.01953125,-24.4140625,-29.296875,0.0
86304.3266315,14.6484375,-25.87890625,-25.87890625,-41.9921875,0.0
86304.33053775,22.4609375,-23.92578125,-29.78515625,-44.921875,0.0
86304.334444,-5.37109375,-24.4140625,-31.73828125,-24.4140625,0.0
86304.33835025,-61.03515625,-27.83203125,-31.25,-18.06640625,0.0
86304.3422565,-43.45703125,-31.73828125,-33.203125,-38.57421875,0.0
86304.34616275,-24.4140625,-38.0859375,-31.25,-41.015625,0.0
86304.350069,-41.50390625,-36.62109375,-27.83203125,-19.53125,0.0
86304.35397525,-59.5703125,-39.0625,-34.66796875,-5.859375,0.0
86304.3578815,-40.52734375,-40.0390625,-39.0625,-20.01953125,0.0
86304.36178775,-10.7421875,-38.57421875,-31.73828125,-35.64453125,0.0
86304.365694,-4.8828125,-31.25,-34.1796875,-23.4375,0.0
86304.36960025,-30.76171875,-21.97265625,-36.1328125,-9.27734375,0.0
86304.397207875,-49.31640625,-22.4609375,-31.25,-23.92578125,0.0
86304.401114125,-30.76171875,-23.4375,-29.296875,-47.36328125,0.0
86304.405020375,-8.7890625,-24.4140625,-21.97265625,-42.96875,0.0
86304.408926625,-12.6953125,-24.4140625,-17.08984375,-19.53125,0.0
86304.412832875,-40.52734375,-24.90234375,-20.5078125,-10.7421875,0.0
86304.416739125,-23.4375,-30.76171875,-29.78515625,-34.1796875,0.0
86304.420645375,-2.9296875,-31.73828125,-36.1328125,-45.41015625,0.0
86304.424551625,-11.23046875,-30.76171875,-37.59765625,-19.53125,0.0
86304.428457875,-21.484375,-25.87890625,-39.0625,-15.13671875,0.0
86304.432364125,2.44140625,-25.87890625,-33.69140625,-41.9921875,0.0
86304.436270375,21.484375,-37.59765625,-31.25,-49.8046875,0.0
86304.440176625,11.71875,-36.62109375,-31.25,-28.3203125,0.0
86304.417456583,-47.36328125,-34.66796875,-23.92578125,-12.20703125,0.0
86304.421362833,-82.51953125,-38.0859375,-28.3203125,-25.87890625,0.0
86304.425269083,-56.640625,-36.1328125,-36.1328125,-33.203125,0.0
86304.429175333,-35.15625,-33.69140625,-24.90234375,-20.5078125,0.0
86304.433081583,-21.97265625,-29.296875,-19.53125,-13.671875,0.0
86304.436987833,-21.97265625,-33.203125,-27.83203125,-10.25390625,0.0
86304.440894083,-24.90234375,-36.1328125,-31.25,-22.4609375,0.0
86304.444800333,-22.4609375,-34.66796875,-33.69140625,-18.06640625,0.0
86304.448706583,-12.6953125,-27.34375,-27.34375,2.44140625,0.0
86304.452612833,-27.34375,-28.3203125,-25.390625,-5.37109375,0.0
86304.456519083,-23.92578125,-32.2265625,-30.2734375,-30.76171875,0.0
86304.460425333,5.859375,-20.5078125,-29.296875,-38.57421875,0.0
86304.486769458,-2.9296875,-20.01953125,-32.2265625,-21.97265625,0.0
86304.490675708,-33.203125,-31.25,-41.9921875,-15.625,0.0
86304.494581958,-22.94921875,-30.2734375,-41.015625,-40.0390625,0.0
86304.498488208,-13.18359375,-29.296875,-34.66796875,-48.828125,0.0
86304.502394458,-23.4375,-33.69140625,-30.76171875,-16.11328125,0.0
86304.506300708,-49.8046875,-37.109375,-37.109375,-2.44140625,0.0
86304.510206958,-39.55078125,-34.1796875,-42.96875,-15.625,0.0
86304.514113208,-25.390625,-25.87890625,-35.64453125,-29.296875,0.0
86304.518019458,-38.57421875,-18.5546875,-26.3671875,-31.25,0.0
86304.521925708,-37.109375,-20.5078125,-26.3671875,-14.6484375,0.0
86304.525831958,-48.33984375,-21.97265625,-25.87890625,-21.484375,0.0
86304.529738208,-37.59765625,-29.78515625,-21.484375,-51.26953125,0.0
86304.532151916,-7.8125,-40.52734375,-24.4140625,-55.17578125,0.0
86304.536058166,-17.578125,-31.73828125,-31.25,-23.4375,0.0
86304.539964416,-48.828125,-25.87890625,-32.2265625,-9.765625,0.0
86304.543870666,-41.015625,-29.296875,-32.2265625,-38.57421875,0.0
86304.547776916,-38.0859375,-35.64453125,-33.203125,-51.7578125,0.0
86304.551683166,-39.0625,-32.2265625,-35.15625,-22.4609375,0.0
86304.555589416,-38.57421875,-27.83203125,-43.45703125,-6.8359375,0.0
86304.559495666,-37.109375,-32.2265625,-41.9921875,-31.25,0.0
86304.563401916,-28.80859375,-34.66796875,-30.2734375,-45.41015625,0.0
86304.567308166,-18.5546875,-35.15625,-30.76171875,-28.3203125,0.0
86304.571214416,-39.0625,-35.64453125,-33.203125,-13.18359375,0.0
86304.575120666,-71.77734375,-35.64453125,-27.34375,-33.69140625,0.0
86304.580432333,-58.59375,-36.62109375,-24.4140625,-57.12890625,0.0
86304.584338583,-35.15625,-35.15625,-24.4140625,-35.64453125,0.0
86304.588244833,-52.734375,-31.73828125,-25.87890625,-12.20703125,0.0
86304.592151083,-66.40625,-30.2734375,-22.4609375,-20.99609375,0.0
86304.596057333,-38.57421875,-29.296875,-18.5546875,-52.24609375,0.0
86304.599963583,-15.625,-28.80859375,-27.34375,-47.8515625,0.0
86304.603869833,-12.20703125,-23.4375,-26.85546875,-21.484375,0.0
86304.607776083,-45.8984375,-20.5078125,-21.484375,-17.578125,0.0
86304.611682333,-37.59765625,-24.90234375,-29.78515625,-36.62109375,0.0
86304.615588583,2.44140625,-23.92578125,-41.015625,-60.546875,0.0
86304.619494833,13.671875,-23.92578125,-46.875,-45.41015625,0.0
86304.623401083,-16.11328125,-29.296875,-41.50390625,-31.73828125,0.0
86304.629862083,-69.82421875,-30.2734375,-37.109375,-51.7578125,0.0
86304.633768333,-96.19140625,-31.25,-31.25,-60.05859375,0.0
86304.637674583,-83.49609375,-38.57421875,-19.53125,-37.109375,0.0
86304.641580833,-65.91796875,-36.62109375,-13.671875,-16.6015625,0.0
86304.645487083,-60.05859375,-28.80859375,-22.94921875,-20.5078125,0.0
86304.649393333,-43.45703125,-26.85546875,-34.1796875,-45.41015625,0.0
86304.653299583,-34.66796875,-22.94921875,-26.85546875,-44.921875,0.0
86304.657205833,-30.76171875,-22.94921875,-20.99609375,-18.06640625,0.0
86304.661112083,-40.0390625,-35.15625,-30.76171875,-19.04296875,0.0
86304.665018333,-32.2265625,-40.52734375,-39.55078125,-40.0390625,0.0
86304.668924583,-19.53125,-32.2265625,-32.2265625,-49.31640625,0.0
86304.672830833,-25.87890625,-32.71484375,-29.296875,-33.203125,0.0
86304.6743605,-38.57421875,-40.0390625,-28.80859375,-25.87890625,0.0
86304.67826675,-34.66796875,-42.48046875,-22.4609375,-54.6875,0.0
86304.682173,-22.94921875,-39.0625,-23.92578125,-68.359375,0.0
86304.68607925,-13.18359375,-40.0390625,-29.296875,-43.9453125,0.0
86304.6899855,-21.97265625,-38.57421875,-31.25,-23.92578125,0.0
86304.69389175,-14.16015625,-33.203125,-31.25,-41.015625,0.0
86304.697798,10.25390625,-32.71484375,-26.3671875,-62.01171875,0.0
86304.70170425,-11.23046875,-32.71484375,-23.4375,-44.921875,0.0
86304.7056105,-42.96875,-37.59765625,-42.48046875,-15.13671875,0.0
86304.70951675,-75.68359375,-35.64453125,-47.8515625,-14.6484375,0.0
86304.713423,-64.453125,-27.83203125,-32.2265625,-34.1796875,0.0
86304.71732925,-44.921875,-26.85546875,-31.25,-26.85546875,0.0
86304.714832041,-57.6171875,-29.78515625,-26.3671875,-12.20703125,0.0
86304.718738291,-80.56640625,-35.64453125,-30.2734375,-18.5546875,0.0
86304.722644541,-64.453125,-40.52734375,-32.71484375,-41.9921875,0.0
86304.726550791,-33.69140625,-36.62109375,-27.83203125,-36.62109375,0.0
86304.730457041,-19.53125,-30.76171875,-29.296875,-16.11328125,0.0
86304.734363291,-32.71484375,-41.50390625,-30.2734375,-15.625,0.0
86304.738269541,-14.6484375,-41.50390625,-30.76171875,-38.0859375,0.0
86304.742175791,20.99609375,-27.83203125,-29.296875,-51.7578125,0.0
86304.746082041,6.8359375,-25.87890625,-35.64453125,-24.4140625,0.0
86304.749988291,-17.578125,-21.484375,-34.66796875,-4.8828125,0.0
86304.753894541,-28.80859375,-22.4609375,-20.99609375,-25.87890625,0.0
86304.757800791,-15.625,-24.90234375,-17.578125,-42.48046875,0.0
86304.762072958,-7.8125,-24.90234375,-18.5546875,-32.71484375,0.0
86304.765979208,-28.80859375,-36.1328125,-19.53125,-22.4609375,0.0
86304.769885458,-37.59765625,-33.203125,-27.83203125,-20.01953125,0.0
86304.773791708,-6.8359375,-21.484375,-28.80859375,-41.015625,0.0
86304.777697958,-2.9296875,-28.80859375,-24.4140625,-41.9921875,0.0
86304.781604208,-43.45703125,-37.109375,-28.3203125,-6.8359375,0.0
86304.785510458,-72.75390625,-40.0390625,-29.78515625,1.46484375,0.0
86304.789416708,-43.9453125,-46.875,-32.2265625,-19.53125,0.0
86304.793322958,-9.27734375,-41.9921875,-37.59765625,-26.3671875,0.0
86304.797229208,-7.8125,-33.69140625,-29.296875,-18.06640625,0.0
86304.801135458,-16.11328125,-34.66796875,-22.4609375,-6.34765625,0.0
86304.805041708,-30.76171875,-36.62109375,-21.97265625,-30.2734375,0.0
86304.806519,-27.34375,-37.109375,-19.04296875,-48.33984375,0.0
86304.81042525,-15.13671875,-34.66796875,-20.5078125,-20.01953125,0.0
86304.8143315,-36.1328125,-27.34375,-32.71484375,-0.48828125,0.0
86304.81823775,-26.3671875,-23.92578125,-32.71484375,-24.90234375,0.0
86304.822144,11.23046875,-25.87890625,-28.80859375,-50.29296875,0.0
86304.82605025,12.20703125,-29.296875,-31.73828125,-39.55078125,0.0
86304.8299565,-7.32421875,-29.78515625,-29.78515625,-14.6484375,0.0
86304.83386275,-36.1328125,-31.73828125,-33.203125,-9.27734375,0.0
86304.837769,-36.1328125,-34.66796875,-29.78515625,-35.64453125,0.0
86304.84167525,-9.27734375,-33.203125,-22.4609375,-40.52734375,0.0
86304.8455815,3.90625,-25.87890625,-25.390625,-10.25390625,0.0
86304.84948775,-30.76171875,-22.94921875,-20.01953125,1.46484375,0.0
86304.852319666,-40.52734375,-23.4375,-12.6953125,-24.4140625,0.0
86304.856225916,-33.69140625,-24.90234375,-19.53125,-41.9921875,0.0
86304.860132166,-35.15625,-24.90234375,-29.296875,-18.5546875,0.0
86304.864038416,-47.8515625,-30.2734375,-33.203125,-2.9296875,0.0
86304.867944666,-32.2265625,-33.69140625,-34.1796875,-19.53125,0.0
86304.871850916,5.859375,-31.73828125,-35.64453125,-30.76171875,0.0
86304.875757166,-3.41796875,-35.15625,-41.015625,-10.7421875,0.0
86304.879663416,-34.1796875,-28.3203125,-39.0625,-5.859375,0.0
86304.883569666,-50.29296875,-17.578125,-23.92578125,-35.15625,0.0
86304.887475916,-25.87890625,-22.4609375,-18.06640625,-50.78125,0.0
86304.891382166,-20.99609375,-28.80859375,-22.4609375,-39.0625,0.0
86304.895288416,-35.64453125,-30.76171875,-22.94921875,-22.4609375,0.0
86304.937189666,-40.0390625,-34.66796875,-24.4140625,-24.90234375,0.0
86304.921122,-17.578125,-39.55078125,-30.2734375,-35.15625,0.0
86304.92502825,-11.23046875,-39.55078125,-29.78515625,-36.1328125,0.0
86304.9289345,-20.01953125,-35.64453125,-21.484375,-25.87890625,0.0
86304.93284075,-46.38671875,-36.1328125,-21.97265625,-23.4375,0.0
86304.936747,-58.10546875,-41.015625,-26.3671875,-36.1328125,0.0
86304.94065325,-20.5078125,-36.1328125,-29.78515625,-29.296875,0.0
86304.9445595,4.8828125,-21.484375,-21.484375,-15.625,0.0
86304.94846575,-40.52734375,-27.83203125,-24.90234375,-12.20703125,0.0
86304.952372,-75.68359375,-41.50390625,-36.62109375,-28.3203125,0.0
86304.95627825,-55.6640625,-38.57421875,-31.73828125,-50.29296875,0.0
86304.9601845,-50.29296875,-34.1796875,-21.484375,-31.25,0.0
86304.983619541,-68.359375,-34.1796875,-15.13671875,-13.18359375,0.0
86304.969593083,-57.6171875,-36.62109375,-17.08984375,-22.4609375,0.0
86304.973499333,-23.92578125,-33.69140625,-19.04296875,-44.43359375,0.0
86304.977405583,-12.6953125,-33.203125,-21.484375,-48.828125,0.0
86304.981311833,-17.08984375,-32.71484375,-28.3203125,-26.85546875,0.0
86304.985218083,-40.0390625,-35.64453125,-36.1328125,-2.44140625,0.0
86304.989124333,-22.4609375,-38.57421875,-35.15625,-20.99609375,0.0
86304.993030583,-3.41796875,-27.83203125,-22.94921875,-43.9453125,0.0
86304.996936833,0.9765625,-24.90234375,-23.92578125,-24.4140625,0.0
86305.000843083,-12.20703125,-27.83203125,-31.73828125,-6.34765625,0.0
86305.004749333,-10.7421875,-22.4609375,-29.296875,-20.01953125,0.0
86305.008655583,3.90625,-16.6015625,-17.08984375,-34.66796875,0.0
86305.029834333,-1.46484375,-20.5078125,-13.671875,-24.4140625,0.0
86305.01583,-20.01953125,-22.4609375,-18.5546875,-18.06640625,0.0
86305.01973625,-31.25,-27.34375,-21.97265625,-37.109375,0.0
86305.0236425,-20.5078125,-25.87890625,-25.390625,-47.8515625,0.0
86305.02754875,-22.4609375,-26.3671875,-32.2265625,-33.69140625,0.0
86305.031455,-43.45703125,-33.69140625,-30.76171875,-7.32421875,0.0
86305.03536125,-61.03515625,-32.71484375,-24.4140625,-12.20703125,0.0
86305.0392675,-43.9453125,-32.71484375,-21.484375,-40.0390625,0.0
86305.04317375,-29.78515625,-36.62109375,-20.99609375,-33.203125,0.0
86305.04708,-30.2734375,-42.96875,-29.78515625,-16.11328125,0.0
86305.05098625,-40.52734375,-36.1328125,-30.76171875,-14.6484375,0.0
86305.0548925,-12.6953125,-36.62109375,-29.78515625,-30.76171875,0.0
86305.032823625,13.18359375,-41.50390625,-33.69140625,-40.0390625,0.0
86305.036729875,-2.44140625,-34.1796875,-33.69140625,-22.94921875,0.0
86305.040636125,-43.45703125,-36.1328125,-26.85546875,-16.11328125,0.0
86305.044542375,-44.921875,-35.15625,-20.01953125,-33.203125,0.0
86305.048448625,-26.3671875,-33.69140625,-17.578125,-42.96875,0.0
86305.052354875,-15.13671875,-33.203125,-18.5546875,-30.76171875,0.0
86305.056261125,-14.16015625,-31.25,-25.87890625,-17.08984375,0.0
86305.060167375,-27.83203125,-40.52734375,-30.2734375,-37.109375,0.0
86305.064073625,-49.31640625,-49.8046875,-34.1796875,-55.6640625,0.0
86305.067979875,-34.66796875,-39.55078125,-28.3203125,-34.66796875,0.0
86305.071886125,-20.5078125,-27.83203125,-25.390625,-9.27734375,0.0
86305.075792375,-56.15234375,-32.2265625,-34.66796875,-18.06640625,0.0
86305.078854041,-33.203125,-28.3203125,-32.71484375,-49.31640625,0.0
86305.082760291,-4.39453125,-20.5078125,-24.90234375,-49.8046875,0.0
86305.086666541,-32.2265625,-20.5078125,-27.83203125,-26.85546875,0.0
86305.090572791,-69.3359375,-26.3671875,-33.69140625,-21.97265625,0.0
86305.094479041,-52.734375,-38.57421875,-30.2734375,-50.29296875,0.0
86305.098385291,-26.85546875,-41.50390625,-28.3203125,-51.26953125,0.0
86305.102291541,-29.78515625,-35.15625,-28.80859375,-18.06640625,0.0
86305.106197791,-55.17578125,-34.66796875,-30.76171875,-9.27734375,0.0
86305.110104041,-44.921875,-33.69140625,-43.45703125,-37.59765625,0.0
86305.114010291,-14.16015625,-27.83203125,-42.48046875,-60.05859375,0.0
86305.117916541,-15.625,-27.34375,-24.90234375,-39.0625,0.0
86305.121822791,-37.59765625,-34.66796875,-20.01953125,-18.06640625,0.0
86305.124893375,-62.98828125,-38.57421875,-22.4609375,-25.87890625,0.0
86305.128799625,-39.0625,-29.78515625,-27.83203125,-47.8515625,0.0
86305.132705875,-19.04296875,-32.2265625,-32.2265625,-41.50390625,0.0
86305.136612125,-33.69140625,-34.1796875,-38.0859375,-24.4140625,0.0
86305.140518375,-42.48046875,-30.2734375,-42.48046875,-20.99609375,0.0
86305.144424625,-36.62109375,-32.2265625,-33.203125,-33.203125,0.0
86305.148330875,-41.9921875,-28.3203125,-30.76171875,-41.9921875,0.0
86305.152237125,-45.41015625,-30.76171875,-36.62109375,-8.30078125,0.0
86305.156143375,-60.546875,-36.62109375,-33.69140625,10.25390625,0.0
86305.160049625,-50.29296875,-30.2734375,-26.3671875,-29.296875,0.0
86305.163955875,-4.39453125,-25.390625,-25.87890625,-51.7578125,0.0
86305.167862125,7.8125,-32.2265625,-25.390625,-35.15625,0.0
86305.1714185,-22.4609375,-33.69140625,-21.97265625,-23.92578125,0.0
86305.17532475,-52.734375,-35.64453125,-19.53125,-41.50390625,0.0
86305.179231,-23.92578125,-32.2265625,-16.11328125,-46.875,0.0
86305.18313725,-20.01953125,-25.390625,-20.5078125,-26.3671875,0.0
86305.1870435,-44.921875,-23.4375,-32.71484375,-15.13671875,0.0
86305.19094975,-58.59375,-24.90234375,-33.69140625,-17.08984375,0.0
86305.194856,-50.29296875,-30.2734375,-28.80859375,-31.73828125,0.0
86305.19876225,-41.015625,-30.76171875,-31.73828125,-21.484375,0.0
86305.2026685,-41.015625,-25.87890625,-25.87890625,3.90625,0.0
86305.20657475,-43.9453125,-26.85546875,-18.06640625,0.9765625,0.0
86305.210481,-38.0859375,-39.55078125,-25.390625,-30.76171875,0.0
86305.21438725,-31.25,-42.48046875,-30.76171875,-44.43359375,0.0
86305.2174715,-35.64453125,-28.80859375,-24.4140625,-32.2265625,0.0
86305.22137775,-48.828125,-20.01953125,-24.4140625,-20.01953125,0.0
86305.225284,-43.45703125,-25.390625,-32.2265625,-33.203125,0.0
86305.22919025,-21.97265625,-30.2734375,-30.2734375,-44.921875,0.0
86305.2330965,-6.8359375,-27.83203125,-23.4375,-30.2734375,0.0
86305.23700275,-3.41796875,-21.97265625,-31.73828125,-24.90234375,0.0
86305.240909,-18.06640625,-28.80859375,-41.015625,-27.34375,0.0
86305.24481525,-0.48828125,-39.0625,-32.71484375,-36.1328125,0.0
86305.2487215,29.296875,-36.1328125,-25.390625,-38.57421875,0.0
86305.25262775,-5.37109375,-33.69140625,-25.87890625,-13.18359375,0.0
86305.256534,-59.08203125,-26.85546875,-35.64453125,-5.859375,0.0
86305.26044025,-30.76171875,-22.94921875,-44.921875,-30.76171875,0.0
86305.288577333,-18.06640625,-26.85546875,-33.203125,-38.0859375,0.0
86305.292483583,-27.83203125,-25.390625,-24.4140625,-19.04296875,0.0
86305.296389833,-41.015625,-22.94921875,-26.85546875,-17.578125,0.0
86305.300296083,-45.8984375,-18.5546875,-23.4375,-39.0625,0.0
86305.304202333,-13.18359375,-16.11328125,-20.99609375,-40.0390625,0.0
86305.308108583,-17.08984375,-19.53125,-26.85546875,-14.6484375,0.0
86305.312014833,-45.8984375,-24.4140625,-32.71484375,13.671875,0.0
86305.315921083,-44.921875,-25.87890625,-34.66796875,-10.25390625,0.0
86305.319827333,-21.97265625,-27.83203125,-37.59765625,-55.17578125,0.0
86305.323733583,-5.37109375,-35.64453125,-40.52734375,-42.48046875,0.0
86305.327639833,-28.3203125,-37.59765625,-37.109375,-21.97265625,0.0
86305.331546083,-57.12890625,-38.0859375,-32.2265625,-32.71484375,0.0
86305.335559166,-33.69140625,-40.0390625,-29.78515625,-50.78125,0.0
86305.339465416,-9.27734375,-32.71484375,-36.1328125,-38.57421875,0.0
86305.343371666,-25.390625,-27.83203125,-37.59765625,-19.04296875,0.0
86305.347277916,-55.17578125,-31.73828125,-26.3671875,-22.94921875,0.0
86305.351184166,-41.9921875,-35.64453125,-25.87890625,-42.96875,0.0
86305.355090416,-28.3203125,-40.0390625,-34.1796875,-51.7578125,0.0
86305.358996666,-11.71875,-28.80859375,-36.1328125,-36.1328125,0.0
86305.362902916,-20.01953125,-23.4375,-30.76171875,-36.1328125,0.0
86305.366809166,-14.16015625,-25.87890625,-22.4609375,-62.5,0.0
86305.370715416,18.06640625,-22.4609375,-25.390625,-53.22265625,0.0
86305.374621666,-0.9765625,-31.25,-20.99609375,-18.06640625,0.0
86305.378527916,-54.19921875,-42.96875,-16.6015625,-13.671875,0.0
86305.40195425,-68.359375,-48.828125,-24.90234375,-41.50390625,0.0
86305.383537416,-37.109375,-43.9453125,-29.78515625,-55.6640625,0.0
86305.387443666,-36.1328125,-32.71484375,-25.87890625,-29.296875,0.0
86305.391349916,-64.453125,-29.78515625,-29.296875,-17.08984375,0.0
86305.395256166,-69.82421875,-36.1328125,-35.64453125,-29.78515625,0.0
86305.399162416,-42.48046875,-43.9453125,-35.15625,-43.45703125,0.0
86305.403068666,-40.0390625,-36.62109375,-34.1796875,-36.1328125,0.0
86305.406974916,-52.24609375,-27.83203125,-31.73828125,-12.20703125,0.0
86305.410881166,-61.03515625,-36.62109375,-27.34375,-17.08984375,0.0
86305.414787416,-45.8984375,-41.50390625,-19.53125,-37.59765625,0.0
86305.418693666,-36.1328125,-39.55078125,-12.6953125,-39.0625,0.0
86305.422599916,-37.109375,-42.48046875,-16.6015625,-22.4609375,0.0
86305.42553825,-45.8984375,-41.015625,-31.73828125,-17.08984375,0.0
86305.4294445,-23.4375,-32.71484375,-34.66796875,-35.15625,0.0
86305.43335075,-2.9296875,-22.94921875,-29.296875,-45.8984375,0.0
86305.437257,-8.7890625,-23.92578125,-30.76171875,-28.3203125,0.0
86305.44116325,-30.2734375,-39.55078125,-29.78515625,-14.6484375,0.0
86305.4450695,-36.62109375,-40.52734375,-38.0859375,-30.2734375,0.0
86305.44897575,-26.85546875,-30.76171875,-36.1328125,-45.41015625,0.0
86305.452882,-18.06640625,-31.73828125,-22.94921875,-34.1796875,0.0
86305.45678825,-7.32421875,-32.71484375,-21.484375,-11.23046875,0.0
86305.4606945,-24.90234375,-33.69140625,-23.92578125,-19.04296875,0.0
86305.46460075,-9.765625,-31.25,-17.578125,-42.48046875,0.0
86305.468507,-8.7890625,-26.85546875,-18.06640625,-32.71484375,0.0
86305.473822,-21.97265625,-25.87890625,-24.90234375,-7.32421875,0.0
86305.47772825,-32.71484375,-28.80859375,-27.34375,-8.30078125,0.0
86305.4816345,-24.90234375,-28.3203125,-31.25,-39.55078125,0.0
86305.48554075,-31.73828125,-17.578125,-24.4140625,-51.26953125,0.0
86305.489447,-49.31640625,-21.97265625,-18.5546875,-27.83203125,0.0
86305.49335325,-55.17578125,-28.80859375,-19.53125,-15.13671875,0.0
86305.4972595,-34.1796875,-23.4375,-24.4140625,-44.921875,0.0
86305.50116575,-12.6953125,-24.4140625,-37.59765625,-67.87109375,0.0
86305.505072,-9.765625,-31.73828125,-38.0859375,-39.0625,0.0
86305.50897825,-33.69140625,-30.76171875,-25.87890625,-16.11328125,0.0
86305.5128845,-60.546875,-29.78515625,-19.04296875,-25.87890625,0.0
86305.51679075,-50.29296875,-37.59765625,-23.4375,-41.50390625,0.0
86305.517382916,-28.80859375,-38.57421875,-20.99609375,-27.83203125,0.0
86305.521289166,-39.55078125,-36.1328125,-12.6953125,-13.671875,0.0
86305.525195416,-68.359375,-34.1796875,-12.6953125,-25.87890625,0.0
86305.529101666,-44.921875,-36.1328125,-20.01953125,-40.0390625,0.0
86305.533007916,-35.15625,-37.59765625,-29.78515625,-45.8984375,0.0
86305.536914166,-25.390625,-36.1328125,-31.25,-31.25,0.0
86305.542451625,-30.76171875,-34.1796875,-35.15625,-30.76171875,0.0
86305.546357875,-33.203125,-29.296875,-39.55078125,-44.921875,0.0
86305.550264125,-12.20703125,-32.2265625,-35.15625,-41.50390625,0.0
86305.554170375,-3.90625,-25.390625,-37.109375,-34.66796875,0.0
86305.558076625,-23.92578125,-20.99609375,-37.59765625,-25.390625,0.0
86305.561982875,-22.94921875,-24.90234375,-30.76171875,-38.0859375,0.0
86305.541602708,-9.27734375,-27.83203125,-24.90234375,-61.03515625,0.0
86305.545508958,-19.53125,-32.71484375,-23.92578125,-51.26953125,0.0
86305.549415208,-19.53125,-39.55078125,-33.203125,-28.80859375,0.0
86305.553321458,-18.06640625,-43.9453125,-38.57421875,-39.0625,0.0
86305.557227708,-12.20703125,-32.2265625,-28.3203125,-56.15234375,0.0
86305.561133958,-48.828125,-27.34375,-27.34375,-32.71484375,0.0
86305.565040208,-80.078125,-36.1328125,-32.2265625,-7.32421875,0.0
86305.568946458,-80.56640625,-41.015625,-31.25,-4.8828125,0.0
86305.572852708,-51.7578125,-33.69140625,-26.85546875,-24.4140625,0.0
86305.576758958,-3.41796875,-23.92578125,-24.4140625,-38.57421875,0.0
86305.580665208,13.18359375,-21.97265625,-22.4609375,-18.06640625,0.0
86305.584571458,-23.4375,-27.34375,-19.53125,-6.8359375,0.0
86305.588477708,-39.0625,-31.73828125,-20.99609375,-29.296875,0.0
86305.592383958,-21.97265625,-31.25,-25.390625,-37.59765625,0.0
86305.596290208,-5.859375,-31.73828125,-31.73828125,-12.20703125,0.0
86305.600196458,-20.99609375,-37.59765625,-31.25,-4.8828125,0.0
86305.604102708,-37.59765625,-35.15625,-25.87890625,-26.3671875,0.0
86305.608008958,-4.39453125,-27.34375,-21.97265625,-41.50390625,0.0
86305.611915208,20.5078125,-20.99609375,-16.11328125,-21.97265625,0.0
86305.615821458,-18.06640625,-21.484375,-23.92578125,-16.6015625,0.0
86305.619727708,-42.96875,-23.4375,-30.2734375,-36.1328125,0.0
86305.623633958,-27.34375,-30.76171875,-26.85546875,-47.8515625,0.0
86305.627540208,-23.4375,-38.57421875,-29.78515625,-28.3203125,0.0
86305.631446458,-31.73828125,-34.66796875,-31.25,-3.41796875,0.0
86305.656708708,-35.15625,-25.87890625,-28.3203125,-10.7421875,0.0
86305.660614958,-8.30078125,-28.3203125,-29.296875,-38.57421875,0.0
86305.664521208,19.53125,-32.71484375,-39.55078125,-42.48046875,0.0
86305.668427458,6.34765625,-35.15625,-29.296875,-16.11328125,0.0
86305.672333708,-41.50390625,-39.55078125,-18.06640625,-12.6953125,0.0
86305.676239958,-38.0859375,-35.64453125,-24.4140625,-36.62109375,0.0
86305.680146208,-23.92578125,-37.59765625,-29.78515625,-36.1328125,0.0
86305.684052458,-27.34375,-35.64453125,-26.3671875,-8.30078125,0.0
86305.687958708,-55.17578125,-33.203125,-22.94921875,1.46484375,0.0
86305.691864958,-60.05859375,-34.1796875,-31.73828125,-15.625,0.0
86305.695771208,-22.4609375,-29.296875,-26.85546875,-42.48046875,0.0
86305.699677458,-21.484375,-31.25,-21.97265625,-33.69140625,0.0
86305.705028958,-31.25,-36.1328125,-22.4609375,-7.8125,0.0
86305.708935208,-50.78125,-36.1328125,-18.06640625,-15.625,0.0
86305.712841458,-34.66796875,-41.9921875,-16.6015625,-51.7578125,0.0
86305.716747708,-2.44140625,-39.55078125,-18.5546875,-53.22265625,0.0
86305.720653958,9.765625,-28.3203125,-21.484375,-30.2734375,0.0
86305.724560208,-17.578125,-34.66796875,-33.203125,-22.94921875,0.0
86305.728466458,-42.96875,-32.71484375,-36.62109375,-40.52734375,0.0
86305.732372708,-36.1328125,-23.92578125,-27.83203125,-56.15234375,0.0
86305.736278958,-49.31640625,-36.62109375,-32.71484375,-36.62109375,0.0
86305.740185208,-73.2421875,-44.921875,-35.64453125,-20.5078125,0.0
86305.744091458,-66.40625,-38.0859375,-35.64453125,-43.9453125,0.0
86305.747997708,-33.203125,-40.0390625,-37.109375,-58.10546875,0.0
86305.750818666,-26.3671875,-41.9921875,-26.85546875,-41.9921875,0.0
86305.754724916,-56.640625,-33.69140625,-21.97265625,-24.4140625,0.0
86305.758631166,-64.453125,-30.76171875,-20.99609375,-35.64453125,0.0
86305.762537416,-35.15625,-44.921875,-18.5546875,-55.6640625,0.0
86305.766443666,-2.44140625,-46.875,-25.390625,-27.83203125,0.0
86305.770349916,3.41796875,-43.9453125,-28.3203125,-0.9765625,0.0
86305.774256166,-4.39453125,-36.62109375,-25.87890625,-14.16015625,0.0
86305.778162416,13.671875,-24.4140625,-28.80859375,-49.8046875,0.0
86305.782068666,11.71875,-17.578125,-30.76171875,-44.921875,0.0
86305.785974916,-7.32421875,-21.484375,-35.15625,-9.765625,0.0
86305.789881166,-35.64453125,-31.25,-35.64453125,-10.25390625,0.0
86305.793787416,-35.15625,-36.62109375,-27.34375,-39.55078125,0.0
86305.794232458,-26.3671875,-45.41015625,-23.92578125,-54.6875,0.0
86305.798138708,-20.5078125,-41.015625,-24.4140625,-41.50390625,0.0
86305.802044958,-33.69140625,-35.15625,-22.4609375,-34.1796875,0.0
86305.805951208,-43.9453125,-36.1328125,-21.97265625,-55.17578125,0.0
86305.809857458,-25.390625,-30.76171875,-25.87890625,-50.29296875,0.0
86305.813763708,-25.390625,-22.4609375,-25.390625,-9.765625,0.0
86305.817669958,-42.96875,-22.94921875,-26.3671875,0.9765625,0.0
86305.821576208,-38.0859375,-30.76171875,-26.3671875,-19.53125,0.0
86305.825482458,-16.11328125,-35.15625,-32.2265625,-30.2734375,0.0
86305.829388708,-15.625,-35.64453125,-31.25,-31.73828125,0.0
86305.833294958,-17.08984375,-34.66796875,-18.5546875,-27.83203125,0.0
86305.837201208,-49.31640625,-31.73828125,-14.16015625,-15.625,0.0
86305.842836708,-62.5,-25.87890625,-8.7890625,-35.64453125,0.0
86305.846742958,-42.48046875,-28.80859375,-15.625,-49.8046875,0.0
86305.850649208,-23.4375,-32.2265625,-21.97265625,-29.78515625,0.0
86305.854555458,-43.9453125,-27.83203125,-34.1796875,-14.16015625,0.0
86305.858461708,-37.59765625,-30.2734375,-41.015625,-23.92578125,0.0
86305.862367958,0.48828125,-40.52734375,-36.62109375,-27.83203125,0.0
86305.866274208,9.765625,-35.64453125,-28.80859375,-13.671875,0.0
86305.870180458,-12.6953125,-31.25,-21.97265625,-6.34765625,0.0
86305.874086708,-26.3671875,-32.2265625,-23.4375,-16.11328125,0.0
86305.877992958,-27.83203125,-20.99609375,-20.5078125,-41.50390625,0.0
86305.881899208,-35.64453125,-22.94921875,-24.4140625,-35.64453125,0.0
86305.885805458,-45.8984375,-34.66796875,-35.64453125,-7.32421875,0.0
86305.892720083,-51.26953125,-38.57421875,-40.0390625,-25.87890625,0.0
86305.896626333,-16.6015625,-38.57421875,-37.109375,-63.4765625,0.0
86305.900532583,2.9296875,-39.55078125,-27.34375,-48.33984375,0.0
86305.904438833,-30.2734375,-44.43359375,-23.92578125,-18.06640625,0.0
86305.908345083,-62.98828125,-44.43359375,-29.78515625,-12.6953125,0.0
86305.912251333,-58.59375,-39.55078125,-33.203125,-37.109375,0.0
86305.916157583,-43.9453125,-42.48046875,-32.71484375,-49.8046875,0.0
86305.920063833,-26.85546875,-43.9453125,-38.0859375,-17.08984375,0.0
86305.923970083,-41.9921875,-38.57421875,-40.0390625,-8.7890625,0.0
86305.927876333,-34.66796875,-31.73828125,-33.203125,-49.31640625,0.0
86305.931782583,-20.99609375,-35.15625,-27.83203125,-64.453125,0.0
86305.935688833,-20.99609375,-35.15625,-26.3671875,-45.8984375,0.0
86305.9573545,-26.85546875,-29.296875,-31.25,-27.34375,0.0
86305.941015166,-37.109375,-28.3203125,-27.83203125,-36.1328125,0.0
86305.944921416,-33.203125,-26.3671875,-31.25,-47.36328125,0.0
86305.948827666,-15.13671875,-21.484375,-42.48046875,-20.01953125,0.0
86305.952733916,-20.01953125,-30.2734375,-40.52734375,-2.44140625,0.0
86305.956640166,-49.31640625,-38.57421875,-38.0859375,-26.3671875,0.0
86305.960546416,-36.62109375,-36.62109375,-28.80859375,-50.78125,0.0
86305.964452666,-20.99609375,-24.90234375,-18.5546875,-34.1796875,0.0
86305.968358916,-14.16015625,-24.90234375,-13.18359375,-15.625,0.0
86305.972265166,-36.62109375,-41.50390625,-20.01953125,-20.99609375,0.0
86305.976171416,-35.64453125,-41.9921875,-24.4140625,-49.8046875,0.0
86305.980077666,-29.78515625,-35.15625,-19.04296875,-42.96875,0.0
86305.998438291,-32.71484375,-32.2265625,-23.4375,-12.20703125,0.0
86306.002344541,-19.53125,-28.3203125,-26.3671875,0.48828125,0.0
86305.992069625,-18.06640625,-25.390625,-31.25,-25.390625,0.0
86305.995975875,-14.16015625,-22.4609375,-38.57421875,-56.15234375,0.0
86305.999882125,-18.5546875,-24.4140625,-33.203125,-45.8984375,0.0
86306.003788375,-25.390625,-29.78515625,-26.3671875,-44.921875,0.0
86306.007694625,-38.0859375,-36.62109375,-27.83203125,-48.828125,0.0
86306.011600875,-44.43359375,-37.109375,-25.87890625,-49.31640625,0.0
86306.015507125,-29.78515625,-29.78515625,-17.08984375,-40.52734375,0.0
86306.019413375,-25.390625,-32.2265625,-27.83203125,-29.78515625,0.0
86306.023319625,-41.015625,-34.1796875,-35.15625,-31.73828125,0.0
86306.027225875,-41.9921875,-32.71484375,-30.76171875,-46.875,0.0
86306.031698958,-34.1796875,-28.3203125,-34.66796875,-44.43359375,0.0
86306.035605208,-28.80859375,-26.3671875,-33.69140625,-23.4375,0.0
86306.039511458,-50.78125,-29.296875,-24.90234375,-24.4140625,0.0
86306.043417708,-45.41015625,-31.73828125,-23.4375,-41.015625,0.0
86306.047323958,-15.13671875,-29.78515625,-21.97265625,-31.73828125,0.0
86306.051230208,-12.6953125,-30.2734375,-25.87890625,-12.6953125,0.0
86306.055136458,-28.3203125,-33.203125,-40.52734375,3.90625,0.0
86306.059042708,-27.83203125,-23.4375,-39.0625,-3.90625,0.0
86306.062948958,-28.80859375,-19.53125,-31.73828125,-29.296875,0.0
86306.066855208,-32.71484375,-27.34375,-27.83203125,-13.18359375,0.0
86306.070761458,-35.64453125,-24.90234375,-32.71484375,-0.9765625,0.0
86306.074667708,-51.26953125,-23.92578125,-45.8984375,-21.97265625,0.0
86306.074666958,-34.66796875,-31.25,-45.41015625,-39.0625,0.0
86306.078573208,-15.625,-37.59765625,-39.55078125,-41.9921875,0.0
86306.082479458,-23.92578125,-41.9921875,-34.66796875,-27.34375,0.0
86306.086385708,-28.3203125,-39.55078125,-31.25,-28.80859375,0.0
86306.090291958,-2.9296875,-34.1796875,-31.25,-55.17578125,0.0
86306.094198208,-2.44140625,-31.73828125,-32.2265625,-45.8984375,0.0
86306.098104458,-16.6015625,-29.296875,-37.109375,-17.08984375,0.0
86306.102010708,-32.71484375,-32.71484375,-41.9921875,-18.5546875,0.0
86306.105916958,-23.4375,-36.62109375,-43.9453125,-46.38671875,0.0
86306.109823208,-8.30078125,-37.109375,-46.875,-57.6171875,0.0
86306.113729458,-21.484375,-38.0859375,-36.62109375,-38.0859375,0.0
86306.117635708,-51.26953125,-41.9921875,-31.73828125,-13.18359375,0.0
86306.122334958,-66.40625,-39.0625,-34.66796875,-28.3203125,0.0
86306.126241208,-39.55078125,-32.71484375,-32.2265625,-49.8046875,0.0
86306.130147458,-18.06640625,-32.71484375,-30.76171875,-28.80859375,0.0
86306.134053708,-22.94921875,-30.76171875,-28.80859375,-9.27734375,0.0
86306.137959958,-25.87890625,-29.296875,-38.57421875,-21.484375,0.0
86306.141866208,2.44140625,-33.203125,-45.8984375,-43.9453125,0.0
86306.145772458,22.94921875,-31.25,-36.62109375,-35.64453125,0.0
86306.149678708,20.5078125,-25.87890625,-35.64453125,-13.671875,0.0
86306.153584958,-26.85546875,-27.34375,-37.59765625,-21.484375,0.0
86306.157491208,-48.33984375,-36.1328125,-43.45703125,-46.875,0.0
86306.161397458,-48.828125,-36.62109375,-36.1328125,-50.29296875,0.0
86306.165303708,-63.4765625,-27.34375,-22.94921875,-30.76171875,0.0
86306.167439125,-63.96484375,-30.2734375,-30.2734375,-16.11328125,0.0
86306.171345375,-41.015625,-35.64453125,-32.71484375,-30.76171875,0.0
86306.175251625,-26.3671875,-30.2734375,-27.83203125,-38.57421875,0.0
86306.179157875,-20.99609375,-25.87890625,-36.1328125,-12.6953125,0.0
86306.183064125,-37.109375,-26.85546875,-43.9453125,-0.9765625,0.0
86306.186970375,-47.36328125,-28.3203125,-35.15625,-14.16015625,0.0
86306.190876625,-26.3671875,-22.4609375,-27.34375,-38.0859375,0.0
86306.194782875,-12.20703125,-25.87890625,-25.87890625,-38.0859375,0.0
86306.198689125,-18.06640625,-38.0859375,-40.52734375,-23.4375,0.0
86306.202595375,-33.69140625,-28.3203125,-42.48046875,-34.1796875,0.0
86306.206501625,-13.671875,-20.99609375,-28.3203125,-57.6171875,0.0
86306.210407875,-9.27734375,-23.4375,-31.25,-48.828125,0.0
86306.236696041,-23.4375,-25.390625,-36.1328125,-26.3671875,0.0
86306.240602291,-31.25,-26.85546875,-32.71484375,-31.25,0.0
86306.244508541,-21.97265625,-20.99609375,-26.3671875,-58.10546875,0.0
86306.248414791,-14.6484375,-25.390625,-20.99609375,-56.15234375,0.0
86306.252321041,-24.90234375,-39.0625,-21.484375,-34.66796875,0.0
86306.256227291,-39.55078125,-38.0859375,-29.296875,-27.34375,0.0
86306.260133541,-35.64453125,-31.73828125,-32.71484375,-44.43359375,0.0
86306.264039791,-8.7890625,-34.66796875,-35.15625,-53.7109375,0.0
86306.267946041,-25.390625,-35.64453125,-33.203125,-22.94921875,0.0
86306.271852291,-68.359375,-24.90234375,-24.4140625,-9.27734375,0.0
86306.275758541,-78.61328125,-26.3671875,-27.83203125,-25.390625,0.0
86306.279664791,-59.5703125,-39.0625,-35.64453125,-27.34375,0.0
86306.259692125,-33.69140625,-41.9921875,-31.73828125,-9.765625,0.0
86306.263598375,-36.1328125,-41.9921875,-23.92578125,4.8828125,0.0
86306.267504625,-63.96484375,-38.57421875,-28.80859375,-10.7421875,0.0
86306.271410875,-31.73828125,-35.64453125,-30.2734375,-31.73828125,0.0
86306.275317125,-11.71875,-37.109375,-26.85546875,-35.15625,0.0
86306.279223375,-34.1796875,-39.0625,-35.15625,-22.4609375,0.0
86306.283129625,-47.36328125,-38.57421875,-37.109375,-10.25390625,0.0
86306.287035875,-29.78515625,-34.66796875,-32.71484375,-24.4140625,0.0
86306.290942125,-14.6484375,-37.59765625,-20.99609375,-31.25,0.0
86306.294848375,-19.04296875,-37.109375,-13.671875,-20.99609375,0.0
86306.298754625,-35.15625,-39.55078125,-20.99609375,-16.6015625,0.0
86306.302660875,-22.4609375,-37.109375,-30.2734375,-13.671875,0.0
86306.305082791,0.9765625,-25.390625,-30.76171875,-29.78515625,0.0
86306.308989041,-15.13671875,-29.296875,-24.90234375,-25.87890625,0.0
86306.312895291,-34.1796875,-33.69140625,-26.3671875,-13.18359375,0.0
86306.316801541,-26.3671875,-24.4140625,-26.3671875,-35.64453125,0.0
86306.320707791,-2.9296875,-19.04296875,-33.203125,-56.15234375,0.0
86306.324614041,5.37109375,-21.97265625,-34.1796875,-47.36328125,0.0
86306.328520291,-23.92578125,-38.0859375,-25.390625,-28.3203125,0.0
86306.332426541,-75.68359375,-48.33984375,-31.73828125,-10.7421875,0.0
86306.336332791,-48.828125,-33.69140625,-38.57421875,-42.48046875,0.0
86306.340239041,-18.5546875,-24.90234375,-34.66796875,-64.94140625,0.0
86306.344145291,-40.52734375,-31.25,-29.78515625,-27.83203125,0.0
86306.348051541,-70.80078125,-33.69140625,-26.85546875,-10.7421875,0.0
86306.3532715,-50.29296875,-34.66796875,-21.484375,-34.1796875,0.0
86306.35717775,-19.04296875,-40.0390625,-24.90234375,-49.8046875,0.0
86306.361084,-12.6953125,-39.55078125,-26.85546875,-16.6015625,0.0
86306.36499025,-45.41015625,-37.59765625,-20.99609375,-0.48828125,0.0
86306.3688965,-65.91796875,-35.64453125,-27.83203125,-25.390625,0.0
86306.37280275,-44.921875,-34.1796875,-37.59765625,-37.109375,0.0
86306.376709,-32.71484375,-41.015625,-37.59765625,-9.765625,0.0
86306.38061525,-42.96875,-40.0390625,-29.296875,13.671875,0.0
86306.3845215,-55.6640625,-25.390625,-28.80859375,-5.859375,0.0
86306.38842775,-33.69140625,-23.4375,-35.64453125,-33.69140625,0.0
86306.392334,-8.7890625,-27.83203125,-32.71484375,-36.1328125,0.0
86306.39624025,-1.46484375,-31.25,-22.94921875,-28.80859375,0.0
86306.398692,-20.01953125,-29.296875,-23.4375,-28.80859375,0.0
86306.40259825,-21.97265625,-32.2265625,-36.1328125,-38.0859375,0.0
86306.4065045,-11.71875,-39.55078125,-37.59765625,-50.29296875,0.0
86306.41041075,-22.94921875,-29.78515625,-29.78515625,-35.15625,0.0
86306.414317,-46.875,-25.390625,-23.92578125,-27.83203125,0.0
86306.41822325,-45.41015625,-34.1796875,-22.94921875,-51.26953125,0.0
86306.4221295,-29.78515625,-40.52734375,-24.90234375,-54.19921875,0.0
86306.42603575,-19.53125,-35.64453125,-22.4609375,-34.66796875,0.0
86306.429942,-31.25,-32.71484375,-20.5078125,-30.2734375,0.0
86306.43384825,-24.90234375,-28.3203125,-28.80859375,-35.15625,0.0
86306.4377545,-15.625,-26.85546875,-32.2265625,-36.62109375,0.0
86306.462851333,-35.15625,-36.62109375,-20.99609375,-24.90234375,0.0
86306.440042208,-43.9453125,-33.69140625,-20.01953125,-17.578125,0.0
86306.443948458,-44.43359375,-28.80859375,-23.4375,-17.578125,0.0
86306.447854708,-41.015625,-34.1796875,-25.390625,-30.2734375,0.0
86306.451760958,-31.25,-29.296875,-27.83203125,-28.3203125,0.0
86306.455667208,-27.83203125,-25.87890625,-26.85546875,-2.44140625,0.0
86306.459573458,-61.03515625,-38.0859375,-38.0859375,3.41796875,0.0
86306.463479708,-51.26953125,-34.66796875,-40.52734375,-28.80859375,0.0
86306.467385958,-22.94921875,-23.92578125,-21.97265625,-47.8515625,0.0
86306.471292208,-5.859375,-26.85546875,-15.625,-28.3203125,0.0
86306.475198458,-27.34375,-28.80859375,-27.83203125,-13.671875,0.0
86306.479104708,-34.66796875,-28.80859375,-31.25,-36.62109375,0.0
86306.483010958,-3.90625,-32.2265625,-32.71484375,-54.6875,0.0
86306.485582125,4.39453125,-37.59765625,-39.0625,-42.48046875,0.0
86306.489488375,5.37109375,-32.71484375,-41.9921875,-27.83203125,0.0
86306.493394625,-14.16015625,-29.296875,-42.48046875,-26.85546875,0.0
86306.497300875,-35.64453125,-34.1796875,-34.66796875,-43.9453125,0.0
86306.501207125,-32.2265625,-40.52734375,-36.1328125,-46.38671875,0.0
86306.505113375,-13.18359375,-40.52734375,-37.59765625,-29.78515625,0.0
86306.509019625,-30.2734375,-37.109375,-24.90234375,-22.94921875,0.0
86306.512925875,-43.9453125,-36.1328125,-15.13671875,-42.96875,0.0
86306.516832125,-21.484375,-33.69140625,-23.4375,-47.8515625,0.0
86306.520738375,-21.97265625,-29.296875,-33.69140625,-29.296875,0.0
86306.524644625,-64.94140625,-18.5546875,-30.76171875,-27.83203125,0.0
86306.528550875,-55.6640625,-18.06640625,-20.5078125,-37.59765625,0.0
86306.574784416,-13.671875,-31.25,-24.4140625,-37.109375,0.0
86306.560753458,-3.41796875,-33.69140625,-27.34375,-18.5546875,0.0
86306.564659708,-15.13671875,-28.80859375,-22.4609375,-4.39453125,0.0
86306.568565958,-29.296875,-32.71484375,-29.78515625,-20.5078125,0.0
86306.572472208,-27.83203125,-36.1328125,-33.203125,-37.109375,0.0
86306.576378458,-17.578125,-34.66796875,-29.296875,-22.4609375,0.0
86306.580284708,-33.69140625,-32.2265625,-23.4375,-2.44140625,0.0
86306.584190958,-42.48046875,-31.25,-20.5078125,-10.7421875,0.0
86306.588097208,-13.671875,-34.66796875,-29.78515625,-32.2265625,0.0
86306.592003458,7.8125,-36.1328125,-32.2265625,-30.76171875,0.0
86306.595909708,-8.30078125,-34.1796875,-18.5546875,-13.18359375,0.0
86306.599815958,-43.45703125,-32.2265625,-23.4375,-13.671875,0.0
86306.57751775,-19.04296875,-33.203125,-35.64453125,-52.734375,0.0
86306.581424,11.71875,-27.83203125,-35.64453125,-57.6171875,0.0
86306.58533025,-5.37109375,-23.4375,-28.3203125,-21.484375,0.0
86306.5892365,-36.62109375,-30.2734375,-35.64453125,-10.25390625,0.0
86306.59314275,-35.64453125,-38.0859375,-41.50390625,-42.48046875,0.0
86306.597049,1.46484375,-42.48046875,-29.78515625,-60.05859375,0.0
86306.60095525,17.578125,-41.50390625,-24.90234375,-28.3203125,0.0
86306.6048615,-20.5078125,-35.64453125,-30.2734375,-14.16015625,0.0
86306.60876775,-42.48046875,-33.69140625,-40.52734375,-31.73828125,0.0
86306.612674,-38.57421875,-36.1328125,-31.25,-53.7109375,0.0
86306.61658025,-62.5,-39.55078125,-18.06640625,-38.57421875,0.0
86306.6204865,-73.2421875,-42.48046875,-28.3203125,-8.7890625,0.0
86306.662338541,-66.40625,-39.55078125,-34.66796875,-16.11328125,0.0
86306.648357791,-49.31640625,-36.62109375,-28.80859375,-37.109375,0.0
86306.652264041,-28.80859375,-27.34375,-27.34375,-37.59765625,0.0
86306.656170291,-31.73828125,-21.484375,-30.76171875,-24.4140625,0.0
86306.660076541,-55.17578125,-26.85546875,-25.87890625,-19.53125,0.0
86306.663982791,-35.64453125,-37.109375,-25.390625,-37.59765625,0.0
86306.667889041,-10.7421875,-45.8984375,-34.1796875,-54.19921875,0.0
86306.671795291,-20.99609375,-46.875,-39.0625,-25.87890625,0.0
86306.675701541,-57.6171875,-38.0859375,-39.0625,-16.11328125,0.0
86306.679607791,-54.19921875,-29.78515625,-38.0859375,-49.8046875,0.0
86306.683514041,-17.578125,-31.73828125,-36.62109375,-56.640625,0.0
86306.687420291,-7.32421875,-27.34375,-33.69140625,-39.55078125,0.0
86306.703911333,-31.25,-29.296875,-28.3203125,-20.5078125,0.0
86306.707817583,-32.71484375,-27.34375,-23.92578125,-35.15625,0.0
86306.697729791,-6.34765625,-25.390625,-32.2265625,-51.7578125,0.0
86306.701636041,-2.9296875,-33.203125,-36.62109375,-29.78515625,0.0
86306.705542291,-5.859375,-33.203125,-31.73828125,-11.71875,0.0
86306.709448541,-16.11328125,-37.109375,-40.0390625,-21.484375,0.0
86306.713354791,9.27734375,-39.0625,-38.57421875,-51.7578125,0.0
86306.717261041,4.39453125,-43.9453125,-34.66796875,-47.36328125,0.0
86306.721167291,-49.8046875,-40.52734375,-35.15625,-24.4140625,0.0
86306.725073541,-84.47265625,-25.390625,-28.3203125,-20.01953125,0.0
86306.728979791,-69.82421875,-20.5078125,-28.3203125,-39.0625,0.0
86306.732886041,-49.8046875,-28.80859375,-26.85546875,-42.96875,0.0
86306.736084875,-29.78515625,-35.64453125,-25.87890625,-21.484375,0.0
86306.739991125,-39.55078125,-41.015625,-34.1796875,-17.08984375,0.0
86306.743897375,-58.59375,-47.36328125,-39.0625,-47.36328125,0.0
86306.747803625,-45.8984375,-43.9453125,-33.69140625,-65.4296875,0.0
86306.751709875,-36.1328125,-34.66796875,-29.296875,-37.59765625,0.0
86306.755616125,-45.41015625,-31.25,-27.83203125,-15.625,0.0
86306.759522375,-52.734375,-29.296875,-31.73828125,-27.34375,0.0
86306.763428625,-32.2265625,-27.83203125,-22.94921875,-44.43359375,0.0
86306.767334875,-22.4609375,-32.2265625,-10.25390625,-43.45703125,0.0
86306.771241125,-30.76171875,-40.52734375,-26.3671875,-24.4140625,0.0
86306.775147375,-40.52734375,-37.109375,-38.0859375,-27.34375,0.0
86306.779053625,-20.99609375,-26.85546875,-32.71484375,-58.59375,0.0
86306.782297625,7.8125,-22.94921875,-24.90234375,-59.08203125,0.0
86306.786203875,10.7421875,-21.484375,-25.390625,-31.25,0.0
86306.790110125,-27.34375,-30.2734375,-29.78515625,-14.16015625,0.0
86306.794016375,-22.4609375,-41.015625,-24.4140625,-27.34375,0.0
86306.797922625,-4.8828125,-33.203125,-17.578125,-37.109375,0.0
86306.801828875,-23.4375,-25.87890625,-23.4375,-28.80859375,0.0
86306.805735125,-50.78125,-34.1796875,-28.80859375,-15.625,0.0
86306.809641375,-54.6875,-37.109375,-27.34375,-26.85546875,0.0
86306.813547625,-32.2265625,-30.76171875,-29.296875,-50.29296875,0.0
86306.817453875,-33.69140625,-28.3203125,-30.2734375,-35.64453125,0.0
86306.821360125,-33.203125,-29.296875,-31.73828125,-16.6015625,0.0
86306.825266375,-48.33984375,-32.71484375,-26.3671875,-37.109375,0.0
86306.830854375,-35.64453125,-35.64453125,-29.296875,-56.640625,0.0
86306.834760625,-20.01953125,-31.25,-40.0390625,-40.52734375,0.0
86306.838666875,-26.3671875,-31.25,-29.78515625,-20.99609375,0.0
86306.842573125,-40.0390625,-31.25,-18.5546875,-16.6015625,0.0
86306.846479375,-29.78515625,-27.83203125,-18.5546875,-34.1796875,0.0
86306.850385625,-17.08984375,-22.4609375,-24.90234375,-32.2265625,0.0
86306.854291875,-18.5546875,-22.4609375,-26.3671875,-9.765625,0.0
86306.858198125,-31.73828125,-32.71484375,-20.5078125,-17.578125,0.0
86306.862104375,-38.0859375,-36.1328125,-17.578125,-43.45703125,0.0
86306.866010625,-24.4140625,-34.66796875,-21.484375,-49.8046875,0.0
86306.869916875,-16.11328125,-31.73828125,-20.01953125,-25.87890625,0.0
86306.873823125,-26.85546875,-31.73828125,-10.25390625,-4.39453125,0.0
86306.879609916,-33.69140625,-34.1796875,-17.578125,-16.11328125,0.0
86306.883516166,-27.34375,-36.62109375,-20.5078125,-34.66796875,0.0
86306.887422416,-30.76171875,-39.55078125,-16.6015625,-20.99609375,0.0
86306.891328666,-48.828125,-39.55078125,-33.203125,-9.765625,0.0
86306.895234916,-60.546875,-40.52734375,-37.59765625,-25.390625,0.0
86306.899141166,-39.0625,-35.15625,-23.92578125,-52.24609375,0.0
86306.903047416,-33.69140625,-29.296875,-23.4375,-52.734375,0.0
86306.906953666,-38.0859375,-34.1796875,-21.97265625,-25.390625,0.0
86306.910859916,-55.17578125,-37.59765625,-18.06640625,-18.06640625,0.0
86306.914766166,-56.15234375,-34.66796875,-15.625,-36.62109375,0.0
86306.918672416,-29.296875,-36.62109375,-10.25390625,-48.828125,0.0
86306.922578666,-10.25390625,-34.1796875,-16.11328125,-32.71484375,0.0
86306.926113708,-39.0625,-37.59765625,-24.90234375,-16.11328125,0.0
86306.930019958,-67.3828125,-41.50390625,-34.1796875,-37.59765625,0.0
86306.933926208,-40.52734375,-33.203125,-30.76171875,-50.78125,0.0
86306.937832458,-14.16015625,-28.80859375,-18.5546875,-31.25,0.0
86306.941738708,-21.97265625,-26.3671875,-16.6015625,-20.5078125,0.0
86306.945644958,-27.83203125,-23.4375,-21.484375,-36.62109375,0.0
86306.949551208,-6.8359375,-27.34375,-22.94921875,-64.94140625,0.0
86306.953457458,18.06640625,-32.71484375,-18.5546875,-59.08203125,0.0
86306.957363708,0.48828125,-36.62109375,-24.90234375,-28.80859375,0.0
86306.961269958,-51.7578125,-30.76171875,-26.3671875,-22.94921875,0.0
86306.965176208,-30.2734375,-21.484375,-23.92578125,-41.9921875,0.0
86306.969082458,-25.87890625,-28.80859375,-34.1796875,-43.9453125,0.0
86306.988403333,-59.5703125,-28.80859375,-35.15625,-33.203125,0.0
86306.992309583,-79.1015625,-30.2734375,-27.34375,-28.3203125,0.0
86306.978709041,-62.98828125,-32.2265625,-29.296875,-44.43359375,0.0
86306.982615291,-30.76171875,-26.85546875,-33.69140625,-47.8515625,0.0
86306.986521541,-20.5078125,-23.92578125,-28.80859375,-24.4140625,0.0
86306.990427791,-43.9453125,-26.3671875,-28.3203125,-8.30078125,0.0
86306.994334041,-54.6875,-29.296875,-31.25,-25.87890625,0.0
86306.998240291,-36.62109375,-32.71484375,-33.203125,-37.109375,0.0
86307.002146541,-25.87890625,-37.109375,-29.78515625,-20.99609375,0.0
86307.006052791,-22.94921875,-26.3671875,-16.6015625,-7.8125,0.0
86307.009959041,-39.55078125,-22.94921875,-11.23046875,-25.390625,0.0
86307.013865291,-24.90234375,-39.55078125,-24.4140625,-58.59375,0.0
86307.01370225,3.41796875,-35.64453125,-30.76171875,-52.734375,0.0
86307.0176085,-0.48828125,-26.85546875,-24.90234375,-35.64453125,0.0
86307.02151475,-58.10546875,-29.78515625,-27.34375,-23.4375,0.0
86307.025421,-80.56640625,-28.80859375,-31.73828125,-23.4375,0.0
86307.02932725,-68.359375,-26.3671875,-31.73828125,-38.0859375,0.0
86307.0332335,-63.96484375,-31.25,-27.34375,-20.99609375,0.0
86307.03713975,-47.36328125,-39.0625,-27.83203125,-5.37109375,0.0
86307.041046,-16.11328125,-41.9921875,-27.34375,-25.87890625,0.0
86307.04495225,-18.06640625,-35.15625,-20.01953125,-36.62109375,0.0
86307.0488585,-46.875,-29.78515625,-12.6953125,-28.3203125,0.0
86307.05276475,-72.75390625,-32.71484375,-20.01953125,-16.11328125,0.0
86307.056671,-76.171875,-31.73828125,-22.4609375,-18.06640625,0.0
86307.055957625,-42.48046875,-38.0859375,-18.06640625,-32.71484375,0.0
86307.059863875,-21.97265625,-35.15625,-25.87890625,-28.3203125,0.0
86307.063770125,-38.0859375,-35.64453125,-33.203125,-10.7421875,0.0
86307.067676375,-37.59765625,-39.55078125,-33.69140625,-18.06640625,0.0
86307.071582625,-1.953125,-33.69140625,-34.66796875,-42.48046875,0.0
86307.075488875,-0.48828125,-30.76171875,-37.59765625,-38.0859375,0.0
86307.079395125,-23.92578125,-36.62109375,-34.66796875,-6.34765625,0.0
86307.083301375,-49.8046875,-38.57421875,-35.15625,-0.9765625,0.0
86307.087207625,-25.87890625,-30.76171875,-34.66796875,-35.64453125,0.0
86307.091113875,11.23046875,-32.2265625,-27.83203125,-46.38671875,0.0
86307.095020125,5.37109375,-36.62109375,-28.80859375,-19.53125,0.0
86307.098926375,-16.6015625,-36.1328125,-24.90234375,-8.7890625,0.0
86307.105180541,-25.87890625,-35.64453125,-20.01953125,-18.06640625,0.0
86307.109086791,-33.69140625,-32.2265625,-24.90234375,-38.0859375,0.0
86307.112993041,-45.8984375,-25.390625,-21.97265625,-35.15625,0.0
86307.116899291,-64.94140625,-28.3203125,-14.6484375,-14.6484375,0.0
86307.120805541,-61.03515625,-37.109375,-17.08984375,-24.4140625,0.0
86307.124711791,-25.390625,-40.0390625,-23.4375,-45.41015625,0.0
86307.128618041,-10.7421875,-39.0625,-21.97265625,-21.97265625,0.0
86307.132524291,-15.13671875,-29.296875,-16.6015625,12.6953125,0.0
86307.136430541,-26.85546875,-14.6484375,-12.6953125,-8.30078125,0.0
86307.140336791,-8.30078125,-15.13671875,-20.5078125,-42.96875,0.0
86307.144243041,-28.3203125,-25.390625,-31.73828125,-33.203125,0.0
86307.148149291,-52.734375,-27.34375,-29.78515625,-13.18359375,0.0
86307.147921583,-52.734375,-32.71484375,-25.87890625,-17.08984375,0.0
86307.151827833,-35.64453125,-39.0625,-27.83203125,-35.15625,0.0
86307.155734083,-0.9765625,-39.0625,-25.390625,-27.83203125,0.0
86307.159640333,-18.5546875,-41.50390625,-23.92578125,-15.625,0.0
86307.163546583,-60.05859375,-34.1796875,-24.4140625,-9.765625,0.0
86307.167452833,-46.875,-29.78515625,-23.92578125,-16.6015625,0.0
86307.171359083,-18.06640625,-39.0625,-31.25,-33.69140625,0.0
86307.175265333,-25.390625,-39.55078125,-31.73828125,-30.76171875,0.0
86307.179171583,-42.48046875,-33.203125,-29.78515625,-6.8359375,0.0
86307.183077833,-46.875,-35.15625,-30.76171875,-6.34765625,0.0
86307.186984083,-25.87890625,-39.55078125,-27.34375,-34.1796875,0.0
86307.190890333,-14.16015625,-33.203125,-25.390625,-25.87890625,0.0
86307.193852791,-23.4375,-36.62109375,-26.85546875,-8.7890625,0.0
86307.197759041,-24.90234375,-43.45703125,-25.87890625,-24.90234375,0.0
86307.201665291,5.859375,-40.0390625,-23.92578125,-56.15234375,0.0
86307.205571541,22.4609375,-32.2265625,-21.97265625,-55.6640625,0.0
86307.209477791,-3.90625,-25.87890625,-25.390625,-29.78515625,0.0
86307.213384041,-52.734375,-29.296875,-28.3203125,-8.30078125,0.0
86307.217290291,-46.38671875,-24.4140625,-25.390625,-16.11328125,0.0
86307.221196541,-25.390625,-18.5546875,-21.484375,-39.0625,0.0
86307.225102791,-32.2265625,-29.296875,-22.94921875,-26.3671875,0.0
86307.229009041,-49.31640625,-38.57421875,-31.73828125,-17.578125,0.0
86307.232915291,-39.0625,-41.015625,-34.1796875,-41.9921875,0.0
86307.236821541,-2.44140625,-40.0390625,-28.3203125,-49.8046875,0.0
86307.240211708,-22.94921875,-33.203125,-15.13671875,-29.296875,0.0
86307.244117958,-62.5,-23.4375,-7.32421875,-13.671875,0.0
86307.248024208,-67.3828125,-21.97265625,-8.7890625,-21.484375,0.0
86307.251930458,-26.3671875,-22.94921875,-9.765625,-29.78515625,0.0
86307.255836708,-20.99609375,-24.4140625,-20.01953125,-29.296875,0.0
86307.259742958,-44.921875,-31.25,-27.34375,-20.99609375,0.0
86307.263649208,-56.640625,-35.15625,-27.83203125,-21.484375,0.0
86307.267555458,-50.78125,-34.66796875,-26.85546875,-48.33984375,0.0
86307.271461708,-33.203125,-31.73828125,-24.90234375,-47.36328125,0.0
86307.275367958,-42.48046875,-28.3203125,-32.2265625,-21.97265625,0.0
86307.279274208,-61.5234375,-24.90234375,-32.71484375,-20.5078125,0.0
86307.30311825,-42.48046875,-20.5078125,-27.83203125,-39.55078125,0.0
86307.299884208,-9.765625,-20.99609375,-25.87890625,-49.8046875,0.0
86307.303790458,-2.9296875,-27.34375,-20.99609375,-30.76171875,0.0
86307.307696708,-13.18359375,-36.1328125,-21.97265625,-18.5546875,0.0
86307.311602958,-36.1328125,-41.015625,-29.296875,-34.1796875,0.0
86307.315509208,-22.4609375,-34.66796875,-31.25,-42.96875,0.0
86307.319415458,14.6484375,-28.80859375,-30.76171875,-33.69140625,0.0
86307.323321708,12.20703125,-25.87890625,-25.390625,-22.94921875,0.0
86307.3328255,-15.625,-24.90234375,-20.5078125,-25.390625,0.0
86307.33673175,-28.3203125,-30.2734375,-27.83203125,-36.1328125,0.0
86307.340638,-49.31640625,-31.25,-25.390625,-26.85546875,0.0
86307.34454425,-62.01171875,-24.90234375,-13.18359375,-10.25390625,0.0
86307.3484505,-72.265625,-32.71484375,-23.4375,-14.16015625,0.0
86307.325925791,-47.36328125,-40.0390625,-33.203125,-44.921875,0.0
86307.329832041,-26.3671875,-39.55078125,-31.25,-56.640625,0.0
86307.333738291,-26.3671875,-36.1328125,-36.62109375,-37.59765625,0.0
86307.337644541,-38.57421875,-33.203125,-45.41015625,-26.85546875,0.0
86307.341550791,-38.0859375,-34.66796875,-41.015625,-43.45703125,0.0
86307.345457041,-23.4375,-35.64453125,-25.87890625,-42.96875,0.0
86307.349363291,-15.625,-34.66796875,-23.92578125,-28.3203125,0.0
86307.353269541,-16.11328125,-31.25,-29.296875,-14.16015625,0.0
86307.357175791,-24.90234375,-28.80859375,-24.90234375,-11.23046875,0.0
86307.361082041,-22.4609375,-26.3671875,-21.484375,-32.71484375,0.0
86307.364988291,-14.16015625,-28.80859375,-22.94921875,-34.66796875,0.0
86307.368894541,-21.97265625,-41.9921875,-25.390625,-5.37109375,0.0
86307.37118425,-46.875,-48.33984375,-29.296875,-3.41796875,0.0
86307.3750905,-37.59765625,-42.96875,-22.94921875,-31.73828125,0.0
86307.37899675,-25.87890625,-39.55078125,-19.04296875,-32.71484375,0.0
86307.382903,-34.66796875,-34.66796875,-25.390625,-12.20703125,0.0
86307.38680925,-53.22265625,-27.83203125,-30.76171875,-20.99609375,0.0
86307.3907155,-44.921875,-35.15625,-39.55078125,-51.7578125,0.0
86307.39462175,-18.06640625,-34.66796875,-31.25,-56.640625,0.0
86307.398528,-14.16015625,-35.64453125,-25.87890625,-35.64453125,0.0
86307.40243425,-41.9921875,-45.8984375,-32.2265625,-28.3203125,0.0
86307.4063405,-40.52734375,-37.59765625,-21.97265625,-45.8984375,0.0
86307.41024675,-20.99609375,-32.71484375,-17.578125,-53.22265625,0.0
86307.414153,-27.83203125,-32.2265625,-22.4609375,-45.8984375,0.0
86307.439037875,-31.73828125,-28.80859375,-24.4140625,-35.15625,0.0
86307.442944125,-44.43359375,-29.78515625,-22.94921875,-42.96875,0.0
86307.446850375,-32.2265625,-31.73828125,-16.6015625,-53.7109375,0.0
86307.450756625,-9.765625,-33.203125,-20.5078125,-45.41015625,0.0
86307.454662875,-25.87890625,-37.109375,-34.1796875,-28.80859375,0.0
86307.458569125,-68.359375,-42.48046875,-42.48046875,-24.90234375,0.0
86307.462475375,-58.10546875,-34.66796875,-36.62109375,-33.69140625,0.0
86307.466381625,-33.203125,-28.80859375,-29.78515625,-23.92578125,0.0
86307.470287875,-35.15625,-28.80859375,-20.5078125,-4.39453125,0.0
86307.474194125,-60.05859375,-30.76171875,-14.6484375,-6.8359375,0.0
86307.478100375,-49.8046875,-39.0625,-21.97265625,-26.85546875,0.0
86307.482006625,-20.99609375,-41.50390625,-22.4609375,-34.1796875,0.0
86307.486363041,-15.13671875,-39.0625,-20.99609375,-19.53125,0.0
86307.490269291,-24.90234375,-36.62109375,-24.90234375,-3.41796875,0.0
86307.494175541,-34.66796875,-31.25,-30.2734375,-21.484375,0.0
86307.498081791,-19.53125,-30.2734375,-29.78515625,-40.52734375,0.0
86307.501988041,-12.6953125,-35.64453125,-31.25,-28.3203125,0.0
86307.505894291,-26.3671875,-32.2265625,-40.0390625,-13.671875,0.0
86307.509800541,-10.7421875,-27.83203125,-42.96875,-14.16015625,0.0
86307.513706791,24.90234375,-26.85546875,-28.3203125,-32.2265625,0.0
86307.517613041,1.953125,-26.3671875,-13.671875,-30.76171875,0.0
86307.521519291,-41.015625,-29.296875,-16.6015625,-11.71875,0.0
86307.525425541,-58.10546875,-28.3203125,-24.90234375,-9.27734375,0.0
86307.529331791,-25.390625,-25.87890625,-25.390625,-37.59765625,0.0
86307.530614416,5.37109375,-19.53125,-15.13671875,-53.22265625,0.0
86307.534520666,-20.5078125,-17.578125,-15.13671875,-28.80859375,0.0
86307.538426916,-60.546875,-24.4140625,-19.04296875,-19.53125,0.0
86307.542333166,-44.921875,-26.3671875,-23.4375,-43.45703125,0.0
86307.546239416,-21.97265625,-25.390625,-23.4375,-52.24609375,0.0
86307.550145666,-25.87890625,-32.71484375,-21.484375,-24.90234375,0.0
86307.554051916,-35.64453125,-31.25,-13.671875,-8.30078125,0.0
86307.557958166,-39.0625,-25.87890625,-5.859375,-29.78515625,0.0
86307.561864416,-26.3671875,-25.390625,-8.30078125,-49.8046875,0.0
86307.565770666,-14.6484375,-27.83203125,-18.5546875,-43.45703125,0.0
86307.569676916,-15.625,-32.2265625,-37.59765625,-17.578125,0.0
86307.573583166,-38.57421875,-27.83203125,-27.83203125,-17.08984375,0.0
86307.57269925,-50.29296875,-27.34375,-8.30078125,-44.43359375,0.0
86307.5766055,-50.29296875,-28.80859375,-13.18359375,-41.015625,0.0
86307.58051175,-39.0625,-33.203125,-15.625,-18.5546875,0.0
86307.584418,-40.52734375,-30.76171875,-14.16015625,-20.01953125,0.0
86307.58832425,-30.76171875,-24.90234375,-19.53125,-43.9453125,0.0
86307.5922305,-19.04296875,-26.85546875,-28.80859375,-47.36328125,0.0
86307.59613675,-16.6015625,-27.34375,-29.296875,-27.34375,0.0
86307.600043,-35.64453125,-30.2734375,-19.53125,-25.87890625,0.0
86307.60394925,-26.85546875,-32.71484375,-16.11328125,-44.921875,0.0
86307.6078555,-5.37109375,-30.2734375,-25.87890625,-45.8984375,0.0
86307.61176175,-4.39453125,-31.25,-36.1328125,-23.92578125,0.0
86307.615668,-21.97265625,-29.78515625,-28.80859375,-6.8359375,0.0
86307.616422333,-46.38671875,-33.203125,-22.4609375,-22.4609375,0.0
86307.620328583,-31.25,-37.109375,-22.94921875,-49.31640625,0.0
86307.624234833,-21.97265625,-37.59765625,-22.4609375,-37.109375,0.0
86307.628141083,-33.69140625,-35.15625,-23.4375,-19.53125,0.0
86307.632047333,-45.41015625,-34.1796875,-23.4375,-33.203125,0.0
86307.635953583,-23.4375,-37.59765625,-19.04296875,-56.640625,0.0
86307.639859833,0.48828125,-36.62109375,-21.97265625,-57.6171875,0.0
86307.643766083,-20.01953125,-34.1796875,-21.484375,-34.1796875,0.0
86307.647672333,-59.5703125,-34.66796875,-15.625,-19.04296875,0.0
86307.651578583,-55.6640625,-39.0625,-23.92578125,-33.203125,0.0
86307.655484833,-17.578125,-39.0625,-27.34375,-50.78125,0.0
86307.659391083,11.71875,-36.62109375,-21.97265625,-39.55078125,0.0
86307.691077166,-9.765625,-34.66796875,-26.85546875,-20.5078125,0.0
86307.694983416,-40.52734375,-38.57421875,-27.83203125,-32.2265625,0.0
86307.698889666,-31.25,-38.57421875,-22.4609375,-43.45703125,0.0
86307.702795916,-13.671875,-30.2734375,-30.76171875,-21.484375,0.0
86307.706702166,-37.109375,-23.4375,-33.69140625,-5.37109375,0.0
86307.710608416,-66.40625,-26.3671875,-23.92578125,-23.92578125,0.0
86307.714514666,-42.48046875,-32.71484375,-26.85546875,-53.22265625,0.0
86307.718420916,-12.20703125,-30.76171875,-32.2265625,-47.36328125,0.0
86307.722327166,-10.25390625,-33.69140625,-41.9921875,-18.06640625,0.0
86307.726233416,-22.4609375,-32.71484375,-37.109375,-12.6953125,0.0
86307.730139666,-14.6484375,-36.1328125,-19.53125,-42.96875,0.0
86307.734045916,-9.765625,-44.921875,-26.85546875,-54.19921875,0.0
86307.757189083,-30.76171875,-37.59765625,-34.66796875,-36.62109375,0.0
86307.743191666,-72.75390625,-32.2265625,-36.1328125,-32.71484375,0.0
86307.747097916,-65.4296875,-32.71484375,-44.921875,-57.12890625,0.0
86307.751004166,-29.296875,-37.109375,-48.828125,-59.08203125,0.0
86307.754910416,-10.25390625,-38.0859375,-41.9921875,-32.71484375,0.0
86307.758816666,-29.296875,-35.64453125,-37.109375,-21.97265625,0.0
86307.762722916,-34.66796875,-34.66796875,-35.64453125,-38.57421875,0.0
86307.766629166,-17.08984375,-35.15625,-38.57421875,-52.24609375,0.0
86307.770535416,-38.57421875,-28.80859375,-35.15625,-29.78515625,0.0
86307.774441666,-62.5,-23.92578125,-25.390625,-16.6015625,0.0
86307.778347916,-55.6640625,-29.296875,-27.83203125,-27.34375,0.0
86307.782254166,-13.18359375,-27.34375,-34.66796875,-42.96875,0.0
86307.762908916,5.37109375,-24.4140625,-24.90234375,-39.55078125,0.0
86307.766815166,-5.37109375,-25.390625,-18.06640625,-19.53125,0.0
86307.770721416,-47.36328125,-27.34375,-20.5078125,-20.01953125,0.0
86307.774627666,-41.50390625,-29.78515625,-19.53125,-32.2265625,0.0
86307.778533916,-13.18359375,-26.85546875,-24.4140625,-27.83203125,0.0
86307.782440166,-22.94921875,-25.390625,-26.85546875,-10.25390625,0.0
86307.786346416,-49.31640625,-29.78515625,-25.390625,-6.34765625,0.0
86307.790252666,-36.62109375,-34.66796875,-32.2265625,-22.94921875,0.0
86307.794158916,-6.8359375,-37.59765625,-23.92578125,-34.1796875,0.0
86307.798065166,10.7421875,-28.3203125,-3.41796875,-21.484375,0.0
86307.801971416,3.41796875,-26.85546875,-9.27734375,-1.46484375,0.0
86307.805877666,-23.92578125,-29.296875,-18.06640625,-15.13671875,0.0
86307.806693666,-12.6953125,-29.78515625,-15.13671875,-47.8515625,0.0
86307.810599916,-1.953125,-29.78515625,-15.625,-36.62109375,0.0
86307.814506166,-26.85546875,-28.3203125,-25.390625,-7.32421875,0.0
86307.818412416,-53.22265625,-34.66796875,-30.2734375,-22.4609375,0.0
86307.822318666,-30.76171875,-34.66796875,-22.4609375,-49.8046875,0.0
86307.826224916,-1.953125,-24.90234375,-27.83203125,-42.48046875,0.0
86307.830131166,-17.578125,-20.99609375,-30.76171875,-25.390625,0.0
86307.834037416,-60.546875,-24.4140625,-28.80859375,-20.01953125,0.0
86307.837943666,-54.6875,-30.76171875,-30.2734375,-45.8984375,0.0
86307.841849916,-28.80859375,-34.66796875,-31.25,-67.3828125,0.0
86307.845756166,-20.5078125,-31.73828125,-35.15625,-49.8046875,0.0
86307.849662416,-49.8046875,-35.15625,-33.203125,-32.2265625,0.0
86307.856295333,-50.29296875,-35.15625,-25.390625,-43.45703125,0.0
86307.860201583,-30.76171875,-35.64453125,-25.87890625,-56.15234375,0.0
86307.864107833,-48.828125,-41.9921875,-34.66796875,-38.0859375,0.0
86307.868014083,-68.359375,-41.50390625,-36.1328125,-18.06640625,0.0
86307.871920333,-69.3359375,-32.71484375,-35.64453125,-29.296875,0.0
86307.875826583,-48.33984375,-31.25,-44.43359375,-54.6875,0.0
86307.879732833,-33.69140625,-41.015625,-51.7578125,-38.0859375,0.0
86307.883639083,-34.66796875,-40.0390625,-42.96875,-14.6484375,0.0
86307.887545333,-47.8515625,-28.80859375,-32.71484375,-24.90234375,0.0
86307.891451583,-31.25,-28.80859375,-35.15625,-45.41015625,0.0
86307.895357833,-12.6953125,-32.71484375,-33.203125,-52.24609375,0.0
86307.899264083,-6.34765625,-30.2734375,-22.4609375,-34.1796875,0.0
86307.922910833,-41.9921875,-35.15625,-22.4609375,-28.3203125,0.0
86307.926817083,-57.6171875,-37.109375,-35.15625,-41.50390625,0.0
86307.930723333,-46.875,-33.203125,-41.015625,-47.8515625,0.0
86307.934629583,-40.0390625,-39.0625,-33.69140625,-31.25,0.0
86307.938535833,-48.828125,-41.015625,-26.3671875,-12.6953125,0.0
86307.942442083,-54.19921875,-38.57421875,-32.2265625,-33.69140625,0.0
86307.946348333,-31.25,-36.62109375,-40.0390625,-46.38671875,0.0
86307.950254583,-13.18359375,-28.3203125,-32.71484375,-28.80859375,0.0
86307.954160833,-12.6953125,-22.4609375,-23.92578125,-14.16015625,0.0
86307.958067083,-34.1796875,-32.71484375,-28.3203125,-20.01953125,0.0
86307.961973333,-18.5546875,-42.96875,-29.296875,-42.96875,0.0
86307.965879583,-10.7421875,-37.109375,-26.3671875,-40.52734375,0.0
86307.9439975,-30.2734375,-32.2265625,-29.296875,-25.87890625,0.0
86307.94790375,-52.24609375,-33.69140625,-31.73828125,-27.34375,0.0
86307.95181,-42.96875,-35.64453125,-26.3671875,-49.31640625,0.0
86307.95571625,-20.99609375,-34.66796875,-28.3203125,-50.78125,0.0
86307.9596225,-20.5078125,-31.25,-27.34375,-23.92578125,0.0
86307.96352875,-52.24609375,-32.2265625,-37.109375,-13.671875,0.0
86307.967435,-52.24609375,-34.1796875,-42.96875,-48.33984375,0.0
86307.97134125,-32.2265625,-31.25,-20.99609375,-58.59375,0.0
86307.9752475,-38.0859375,-29.78515625,-9.765625,-24.90234375,0.0
86307.97915375,-53.7109375,-34.1796875,-21.97265625,-11.23046875,0.0
86307.98306,-52.24609375,-39.55078125,-24.90234375,-27.34375,0.0
86307.98696625,-26.3671875,-41.50390625,-20.01953125,-51.7578125,0.0
86307.986331208,-22.4609375,-32.71484375,-29.78515625,-43.45703125,0.0
86307.990237458,-28.80859375,-13.671875,-32.2265625,-20.5078125,0.0
86307.994143708,-39.55078125,-6.8359375,-23.4375,-35.64453125,0.0
86307.998049958,-22.4609375,-21.484375,-20.01953125,-62.98828125,0.0
86308.001956208,-10.25390625,-34.66796875,-24.90234375,-55.17578125,0.0
86308.005862458,-23.92578125,-38.0859375,-32.71484375,-29.78515625,0.0
86308.009768708,-51.26953125,-28.80859375,-34.1796875,-21.97265625,0.0
86308.013674958,-35.64453125,-19.53125,-31.73828125,-42.96875,0.0
86308.017581208,-14.6484375,-17.578125,-35.64453125,-47.36328125,0.0
86308.021487458,-17.578125,-18.5546875,-38.0859375,-20.99609375,0.0
86308.025393708,-60.546875,-21.97265625,-34.66796875,-12.20703125,0.0
86308.029299958,-85.44921875,-32.71484375,-33.203125,-41.015625,0.0
86308.072189375,-41.015625,-41.015625,-32.71484375,-54.19921875,0.0
86308.058208208,-22.4609375,-38.57421875,-29.78515625,-43.9453125,0.0
86308.062114458,-34.1796875,-34.1796875,-26.85546875,-34.1796875,0.0
86308.066020708,-34.66796875,-37.59765625,-23.92578125,-36.1328125,0.0
86308.069926958,-7.8125,-44.43359375,-26.3671875,-45.41015625,0.0
86308.073833208,-5.37109375,-38.0859375,-32.2265625,-33.69140625,0.0
86308.077739458,-32.71484375,-30.2734375,-39.55078125,-20.99609375,0.0
86308.081645708,-56.15234375,-38.57421875,-38.57421875,-17.578125,0.0
86308.085551958,-44.921875,-40.0390625,-37.109375,-24.90234375,0.0
