lsl_timestamp,AF3,F7,F3,FC5,T7,P7,O1,O2,P8,T8,FC6,F4,F8,AF4
1785789203.0,0.004137435897435897,0.004251282051282051,0.00275025641025641,0.003429230769230769,0.004268717948717948,0.0065015384615384605,0.00684102564102564,0.007151794871794871,0.007162051282051281,0.007551794871794871,0.0007538461538461538,0.003478461538461538,0.000787179487179487,0.000786153846153846
1785789203.0078125,0.004138461538461538,0.004251282051282051,0.002752307692307692,0.0034307692307692303,0.004268717948717948,0.00650102564102564,0.006839999999999999,0.007153333333333333,0.0071594871794871786,0.007551794871794871,0.0007538461538461538,0.0034810256410256406,0.000787179487179487,0.0007876923076923076
1785789203.015625,0.004138974358974358,0.004251282051282051,0.0027512820512820505,0.003434358974358974,0.004268717948717948,0.006498974358974358,0.006836410256410255,0.007157948717948717,0.007164615384615384,0.007551794871794871,0.0007538461538461538,0.0034769230769230767,0.000787179487179487,0.0007907692307692306
1785789203.0234375,0.004136923076923076,0.004251282051282051,0.0027497435897435893,0.003432307692307692,0.004268717948717948,0.0064994871794871786,0.006838974358974358,0.007155897435897435,0.007163076923076922,0.007551794871794871,0.0007538461538461538,0.003474358974358974,0.000787179487179487,0.0007897435897435897
1785789203.03125,0.004136410256410256,0.004251282051282051,0.00275025641025641,0.003429230769230769,0.004268717948717948,0.006499999999999999,0.00684051282051282,0.007152307692307691,0.0071615384615384605,0.007551794871794871,0.0007538461538461538,0.0034779487179487176,0.000787179487179487,0.0007866666666666666
1785789203.0390625,0.004138461538461538,0.004251282051282051,0.00275025641025641,0.0034312820512820506,0.004268717948717948,0.006499999999999999,0.006838974358974358,0.007153846153846153,0.007162564102564101,0.007551794871794871,0.0007538461538461538,0.0034805128205128203,0.000787179487179487,0.000786153846153846
1785789203.046875,0.004138461538461538,0.004251282051282051,0.00275025641025641,0.003427692307692307,0.004268717948717948,0.0065015384615384605,0.006839999999999999,0.007154358974358973,0.0071569230769230755,0.007551794871794871,0.0007538461538461538,0.003478461538461538,0.000787179487179487,0.0007882051282051281
1785789203.0546875,0.004137948717948718,0.004251282051282051,0.0027497435897435893,0.0034241025641025638,0.004268717948717948,0.00650051282051282,0.00684051282051282,0.007152820512820512,0.007156410256410255,0.007551794871794871,0.0007538461538461538,0.0034779487179487176,0.000787179487179487,0.0007882051282051281
1785789203.0625,0.004138974358974358,0.004251282051282051,0.002749230769230769,0.0034261538461538457,0.004268717948717948,0.006499999999999999,0.006837948717948718,0.007152820512820512,0.007162051282051281,0.007551794871794871,0.0007538461538461538,0.003477435897435897,0.000787179487179487,0.0007866666666666666
1785789203.0703125,0.0041394871794871784,0.004251282051282051,0.00275025641025641,0.003428717948717948,0.004268717948717948,0.00650051282051282,0.006838461538461538,0.007153333333333333,0.0071615384615384605,0.007551794871794871,0.0007538461538461538,0.003477435897435897,0.000787179487179487,0.000787179487179487
1785789203.078125,0.0041394871794871784,0.004251282051282051,0.0027497435897435893,0.0034297435897435893,0.004268717948717948,0.00650051282051282,0.006838461538461538,0.007153333333333333,0.007158974358974358,0.007551794871794871,0.0007538461538461538,0.003477435897435897,0.000787179487179487,0.0007876923076923076
1785789203.0859375,0.004138461538461538,0.004251282051282051,0.002749230769230769,0.0034297435897435893,0.004268717948717948,0.00650051282051282,0.006836410256410255,0.007152820512820512,0.007162564102564101,0.007551794871794871,0.0007538461538461538,0.0034758974358974353,0.000787179487179487,0.000787179487179487
1785789203.09375,0.004137435897435897,0.004251282051282051,0.0027497435897435893,0.003429230769230769,0.004268717948717948,0.00650051282051282,0.006835897435897435,0.007152820512820512,0.0071615384615384605,0.007551794871794871,0.0007538461538461538,0.003474358974358974,0.000787179487179487,0.0007866666666666666
1785789203.1015625,0.004136923076923076,0.004251282051282051,0.002749230769230769,0.003424615384615384,0.004268717948717948,0.00650051282051282,0.006837435897435897,0.007152307692307691,0.007155384615384614,0.007551794871794871,0.0007538461538461538,0.0034764102564102555,0.000787179487179487,0.0007866666666666666
1785789203.109375,0.004137948717948718,0.004251282051282051,0.002748205128205128,0.0034230769230769228,0.004268717948717948,0.006499999999999999,0.006839999999999999,0.007152307692307691,0.007158461538461538,0.007551794871794871,0.0007538461538461538,0.0034779487179487176,0.000787179487179487,0.0007882051282051281
1785789203.1171875,0.004137435897435897,0.004251282051282051,0.002748205128205128,0.0034271794871794867,0.004268717948717948,0.006499999999999999,0.006842564102564101,0.007152307692307691,0.007163076923076922,0.007551794871794871,0.0007538461538461538,0.0034758974358974353,0.000787179487179487,0.0007851282051282051
1785789203.125,0.004137948717948718,0.004251282051282051,0.0027497435897435893,0.0034317948717948713,0.004268717948717948,0.006499999999999999,0.00684102564102564,0.007155897435897435,0.007163076923076922,0.007551794871794871,0.0007538461538461538,0.0034758974358974353,0.000787179487179487,0.0007876923076923076
1785789203.1328125,0.004138461538461538,0.004251282051282051,0.00275025641025641,0.00343025641025641,0.004268717948717948,0.00650051282051282,0.006838461538461538,0.0071569230769230755,0.007162564102564101,0.007551794871794871,0.0007538461538461538,0.003478974358974358,0.000787179487179487,0.0007948717948717947
1785789203.140625,0.0041394871794871784,0.004251282051282051,0.0027497435897435893,0.003433846153846153,0.004268717948717948,0.00650051282051282,0.006838974358974358,0.007156410256410255,0.007164102564102564,0.007551794871794871,0.0007538461538461538,0.0034799999999999996,0.000787179487179487,0.0007948717948717947
1785789203.1484375,0.0041394871794871784,0.004251282051282051,0.0027497435897435893,0.003436410256410256,0.004268717948717948,0.006498461538461538,0.006839487179487179,0.007155897435897435,0.007165128205128204,0.007551794871794871,0.0007538461538461538,0.003477435897435897,0.000787179487179487,0.0007958974358974357
1785789203.15625,0.004138461538461538,0.004251282051282051,0.0027507692307692302,0.003427692307692307,0.004268717948717948,0.006499999999999999,0.00684051282051282,0.007155384615384614,0.0071615384615384605,0.007551794871794871,0.0007538461538461538,0.003477435897435897,0.000787179487179487,0.0007964102564102563
1785789203.1640625,0.004137948717948718,0.004251282051282051,0.0027507692307692302,0.0034241025641025638,0.004268717948717948,0.00650102564102564,0.0068415384615384605,0.007153333333333333,0.0071569230769230755,0.007551794871794871,0.0007538461538461538,0.003478461538461538,0.000787179487179487,0.0007897435897435897
1785789203.171875,0.00414,0.004251282051282051,0.0027497435897435893,0.00343025641025641,0.004268717948717948,0.006499999999999999,0.006839487179487179,0.007151282051282051,0.0071569230769230755,0.007551794871794871,0.0007538461538461538,0.0034779487179487176,0.000787179487179487,0.0007851282051282051
1785789203.1796875,0.00414,0.004251282051282051,0.0027497435897435893,0.003434358974358974,0.004268717948717948,0.00650051282051282,0.006838461538461538,0.007152307692307691,0.007162051282051281,0.007551794871794871,0.0007538461538461538,0.0034779487179487176,0.000787179487179487,0.0007876923076923076
1785789203.1875,0.004137435897435897,0.004251282051282051,0.0027507692307692302,0.0034307692307692303,0.004268717948717948,0.00650051282051282,0.006838974358974358,0.007152307692307691,0.007163076923076922,0.007551794871794871,0.0007538461538461538,0.003477435897435897,0.000787179487179487,0.0007876923076923076
1785789203.1953125,0.004136410256410256,0.004251282051282051,0.0027507692307692302,0.003427692307692307,0.004268717948717948,0.006499999999999999,0.00684051282051282,0.007149743589743588,0.0071569230769230755,0.007551794871794871,0.0007538461538461538,0.003479487179487179,0.000787179487179487,0.000786153846153846
1785789203.203125,0.004137948717948718,0.004251282051282051,0.0027497435897435893,0.0034251282051282043,0.004268717948717948,0.0065015384615384605,0.006842051282051281,0.007148205128205127,0.007153846153846153,0.007551794871794871,0.0007538461538461538,0.0034805128205128203,0.000787179487179487,0.0007876923076923076
1785789203.2109375,0.004137948717948718,0.004251282051282051,0.002748205128205128,0.003429230769230769,0.004268717948717948,0.006502564102564101,0.00684102564102564,0.0071502564102564085,0.007158974358974358,0.007551794871794871,0.0007538461538461538,0.0034799999999999996,0.000787179487179487,0.0007866666666666666
1785789203.21875,0.004137435897435897,0.004251282051282051,0.002749230769230769,0.0034312820512820506,0.004268717948717948,0.006499999999999999,0.006839487179487179,0.007151794871794871,0.007163076923076922,0.007551794871794871,0.0007538461538461538,0.0034805128205128203,0.000787179487179487,0.0007882051282051281
1785789203.2265625,0.004137948717948718,0.004251282051282051,0.002749230769230769,0.003427692307692307,0.004268717948717948,0.0064994871794871786,0.00684102564102564,0.007151282051282051,0.007157435897435897,0.007551794871794871,0.0007538461538461538,0.003479487179487179,0.000787179487179487,0.0007882051282051281
1785789203.234375,0.004137435897435897,0.004251282051282051,0.002749230769230769,0.0034271794871794867,0.004268717948717948,0.006502051282051281,0.006839999999999999,0.0071507692307692305,0.0071548717948717935,0.007551794871794871,0.0007538461538461538,0.003478461538461538,0.000787179487179487,0.0007866666666666666
1785789203.2421875,0.004136923076923076,0.004251282051282051,0.002749230769230769,0.0034271794871794867,0.004268717948717948,0.00650102564102564,0.006839487179487179,0.007152820512820512,0.00716051282051282,0.007551794871794871,0.0007538461538461538,0.003477435897435897,0.000787179487179487,0.000787179487179487
1785789203.25,0.004137435897435897,0.004251282051282051,0.0027497435897435893,0.0034261538461538457,0.004268717948717948,0.0065015384615384605,0.006842051282051281,0.007154358974358973,0.007163076923076922,0.007551794871794871,0.0007538461538461538,0.003475384615384615,0.000787179487179487,0.000786153846153846
1785789203.2578125,0.0041394871794871784,0.004251282051282051,0.00275025641025641,0.003434358974358974,0.004268717948717948,0.006502564102564101,0.006839487179487179,0.00716051282051282,0.007166666666666666,0.007551794871794871,0.0007538461538461538,0.003475384615384615,0.000787179487179487,0.0007882051282051281
1785789203.265625,0.004138461538461538,0.004251282051282051,0.00275025641025641,0.003436410256410256,0.004268717948717948,0.00650051282051282,0.0068348717948717936,0.007164102564102564,0.0071682051282051275,0.007551794871794871,0.0007538461538461538,0.0034769230769230767,0.000787179487179487,0.0007897435897435897
1785789203.2734375,0.004137948717948718,0.004251282051282051,0.002749230769230769,0.0034307692307692303,0.004268717948717948,0.006498974358974358,0.006837435897435897,0.007158461538461538,0.007164102564102564,0.007551794871794871,0.0007538461538461538,0.0034748717948717943,0.000787179487179487,0.0007876923076923076
1785789203.28125,0.004138461538461538,0.004251282051282051,0.0027487179487179483,0.0034307692307692303,0.004268717948717948,0.00650102564102564,0.006838974358974358,0.007152307692307691,0.007164102564102564,0.007551794871794871,0.0007538461538461538,0.0034758974358974353,0.000787179487179487,0.0007953846153846153
1785789203.2890625,0.0041394871794871784,0.004251282051282051,0.00275025641025641,0.0034328205128205127,0.004268717948717948,0.006499999999999999,0.0068369230769230755,0.007155384615384614,0.007165641025641025,0.007551794871794871,0.0007538461538461538,0.0034805128205128203,0.000787179487179487,0.0008025641025641025
1785789203.296875,0.004138461538461538,0.004251282051282051,0.0027507692307692302,0.0034261538461538457,0.004268717948717948,0.006499999999999999,0.006839487179487179,0.007158461538461538,0.0071594871794871786,0.007551794871794871,0.0007538461538461538,0.0034769230769230767,0.000787179487179487,0.0007923076923076922
1785789203.3046875,0.004138461538461538,0.004251282051282051,0.002749230769230769,0.003424615384615384,0.004268717948717948,0.006503076923076922,0.006844102564102564,0.007151794871794871,0.007155897435897435,0.007551794871794871,0.0007538461538461538,0.0034748717948717943,0.000787179487179487,0.0007825641025641025
1785789203.3125,0.0041394871794871784,0.004251282051282051,0.0027497435897435893,0.0034271794871794867,0.004268717948717948,0.006504102564102564,0.00684051282051282,0.0071507692307692305,0.0071615384615384605,0.007551794871794871,0.0007538461538461538,0.0034779487179487176,0.000787179487179487,0.000787179487179487
1785789203.3203125,0.00414,0.004251282051282051,0.0027507692307692302,0.0034251282051282043,0.004268717948717948,0.006502051282051281,0.006838461538461538,0.007154358974358973,0.007162564102564101,0.007551794871794871,0.0007538461538461538,0.0034764102564102555,0.000787179487179487,0.0007892307692307692
1785789203.328125,0.004138974358974358,0.004251282051282051,0.00275025641025641,0.0034256410256410254,0.004268717948717948,0.0065015384615384605,0.006839999999999999,0.007153846153846153,0.007157948717948717,0.007551794871794871,0.0007538461538461538,0.003474358974358974,0.000787179487179487,0.0007856410256410254
1785789203.3359375,0.004137435897435897,0.004251282051282051,0.0027497435897435893,0.0034261538461538457,0.004268717948717948,0.006504102564102564,0.00684051282051282,0.007151794871794871,0.007155897435897435,0.007551794871794871,0.0007538461538461538,0.0034779487179487176,0.000787179487179487,0.0007856410256410254
1785789203.34375,0.004137435897435897,0.004251282051282051,0.0027512820512820505,0.0034261538461538457,0.004268717948717948,0.006503589743589743,0.0068415384615384605,0.007153333333333333,0.007157948717948717,0.007551794871794871,0.0007538461538461538,0.003478974358974358,0.000787179487179487,0.0007876923076923076
1785789203.3515625,0.004138461538461538,0.004251282051282051,0.0027512820512820505,0.003428717948717948,0.004268717948717948,0.00650102564102564,0.006839999999999999,0.007154358974358973,0.0071615384615384605,0.007551794871794871,0.0007538461538461538,0.0034748717948717943,0.000787179487179487,0.0007887179487179486
1785789203.359375,0.004137948717948718,0.004251282051282051,0.0027487179487179483,0.003432307692307692,0.004268717948717948,0.006499999999999999,0.006837948717948718,0.007155897435897435,0.007162564102564101,0.007551794871794871,0.0007538461538461538,0.0034748717948717943,0.000787179487179487,0.0007892307692307692
1785789203.3671875,0.004137435897435897,0.004251282051282051,0.0027476923076923073,0.0034307692307692303,0.004268717948717948,0.006499999999999999,0.006838974358974358,0.007156410256410255,0.007162051282051281,0.007551794871794871,0.0007538461538461538,0.003478461538461538,0.000787179487179487,0.0007887179487179486
1785789203.375,0.004138461538461538,0.004251282051282051,0.002749230769230769,0.00343025641025641,0.004268717948717948,0.00650051282051282,0.00684102564102564,0.007156410256410255,0.007162051282051281,0.007551794871794871,0.0007538461538461538,0.003478974358974358,0.000787179487179487,0.0007897435897435897
1785789203.3828125,0.00414,0.004251282051282051,0.00275025641025641,0.0034282051282051276,0.004268717948717948,0.00650102564102564,0.006838974358974358,0.0071569230769230755,0.007164615384615384,0.007551794871794871,0.0007538461538461538,0.0034769230769230767,0.000787179487179487,0.0007882051282051281
1785789203.390625,0.004138974358974358,0.004251282051282051,0.0027487179487179483,0.0034261538461538457,0.004268717948717948,0.0065015384615384605,0.006836410256410255,0.007156410256410255,0.007164615384615384,0.007551794871794871,0.0007538461538461538,0.003478461538461538,0.000787179487179487,0.0007876923076923076
1785789203.3984375,0.004137435897435897,0.004251282051282051,0.0027487179487179483,0.0034282051282051276,0.004268717948717948,0.0065015384615384605,0.006838974358974358,0.007152820512820512,0.007159999999999999,0.007551794871794871,0.0007538461538461538,0.0034799999999999996,0.000787179487179487,0.0007887179487179486
1785789203.40625,0.004138461538461538,0.004251282051282051,0.0027497435897435893,0.0034328205128205127,0.004268717948717948,0.006502051282051281,0.006839999999999999,0.007154358974358973,0.007159999999999999,0.007551794871794871,0.0007538461538461538,0.003477435897435897,0.000787179487179487,0.0007912820512820511
1785789203.4140625,0.004138974358974358,0.004251282051282051,0.0027507692307692302,0.0034312820512820506,0.004268717948717948,0.0065015384615384605,0.006838461538461538,0.007155897435897435,0.0071635897435897425,0.007551794871794871,0.0007538461538461538,0.0034779487179487176,0.000787179487179487,0.0007923076923076922
1785789203.421875,0.004138461538461538,0.004251282051282051,0.0027507692307692302,0.0034307692307692303,0.004268717948717948,0.006502051282051281,0.006839999999999999,0.007152820512820512,0.00716051282051282,0.007551794871794871,0.0007538461538461538,0.0034779487179487176,0.000787179487179487,0.0007887179487179486
1785789203.4296875,0.004138974358974358,0.004251282051282051,0.0027497435897435893,0.003435384615384615,0.004268717948717948,0.006502564102564101,0.006839487179487179,0.007155384615384614,0.0071615384615384605,0.007551794871794871,0.0007538461538461538,0.0034779487179487176,0.000787179487179487,0.0007928205128205127
1785789203.4375,0.0041394871794871784,0.004251282051282051,0.0027507692307692302,0.003434358974358974,0.004268717948717948,0.006498974358974358,0.006837435897435897,0.007158974358974358,0.0071661538461538455,0.007551794871794871,0.0007538461538461538,0.003478461538461538,0.000787179487179487,0.0007979487179487179
1785789203.4453125,0.0041394871794871784,0.004251282051282051,0.0027517948717948717,0.0034251282051282043,0.004268717948717948,0.006498461538461538,0.006837948717948718,0.007152307692307691,0.007158974358974358,0.007551794871794871,0.0007538461538461538,0.0034769230769230767,0.000787179487179487,0.0007902564102564101
1785789203.453125,0.004138974358974358,0.004251282051282051,0.0027497435897435893,0.003422051282051282,0.004268717948717948,0.006505128205128204,0.006839999999999999,0.007145641025641025,0.007151282051282051,0.007551794871794871,0.0007538461538461538,0.0034748717948717943,0.000787179487179487,0.0007825641025641025
1785789203.4609375,0.004138461538461538,0.004251282051282051,0.002749230769230769,0.003429230769230769,0.004268717948717948,0.006505128205128204,0.006837948717948718,0.007151794871794871,0.007159999999999999,0.007551794871794871,0.0007538461538461538,0.0034764102564102555,0.000787179487179487,0.000786153846153846
1785789203.46875,0.004137948717948718,0.004251282051282051,0.0027512820512820505,0.0034312820512820506,0.004268717948717948,0.006497435897435897,0.0068348717948717936,0.007157948717948717,0.007167179487179486,0.007551794871794871,0.0007538461538461538,0.003477435897435897,0.000787179487179487,0.0007897435897435897
1785789203.4765625,0.004138461538461538,0.004251282051282051,0.0027517948717948717,0.0034282051282051276,0.004268717948717948,0.006497948717948718,0.006834358974358973,0.007155897435897435,0.007162564102564101,0.007551794871794871,0.0007538461538461538,0.0034764102564102555,0.000787179487179487,0.0007876923076923076
1785789203.484375,0.004137948717948718,0.004251282051282051,0.0027507692307692302,0.003422051282051282,0.004268717948717948,0.006502564102564101,0.006837948717948718,0.007152820512820512,0.007158974358974358,0.007551794871794871,0.0007538461538461538,0.003477435897435897,0.000787179487179487,0.0007882051282051281
1785789203.4921875,0.004136410256410256,0.004251282051282051,0.0027497435897435893,0.003419487179487179,0.004268717948717948,0.0065015384615384605,0.0068415384615384605,0.007151794871794871,0.0071594871794871786,0.007551794871794871,0.0007538461538461538,0.003478461538461538,0.000787179487179487,0.0007882051282051281
1785789203.5,0.004137435897435897,0.004251282051282051,0.002749230769230769,0.0034261538461538457,0.004268717948717948,0.006499999999999999,0.006839999999999999,0.0071502564102564085,0.007158974358974358,0.007551794871794871,0.0007538461538461538,0.0034779487179487176,0.000787179487179487,0.0007882051282051281
1785789203.5078125,0.004137948717948718,0.004251282051282051,0.002749230769230769,0.0034312820512820506,0.004268717948717948,0.006502564102564101,0.006837435897435897,0.007151282051282051,0.0071594871794871786,0.007551794871794871,0.0007538461538461538,0.003477435897435897,0.000787179487179487,0.0007882051282051281
1785789203.515625,0.004136923076923076,0.004251282051282051,0.0027507692307692302,0.0034297435897435893,0.004268717948717948,0.0065015384615384605,0.006838461538461538,0.007154358974358973,0.007159999999999999,0.007551794871794871,0.0007538461538461538,0.0034779487179487176,0.000787179487179487,0.000786153846153846
1785789203.5234375,0.004137948717948718,0.004251282051282051,0.0027507692307692302,0.003428717948717948,0.004268717948717948,0.006498974358974358,0.006838461538461538,0.007155897435897435,0.00716051282051282,0.007551794871794871,0.0007538461538461538,0.003478974358974358,0.000787179487179487,0.0007876923076923076
1785789203.53125,0.0041394871794871784,0.004251282051282051,0.0027497435897435893,0.0034266666666666664,0.004268717948717948,0.006498974358974358,0.006837948717948718,0.007155384615384614,0.00716102564102564,0.007551794871794871,0.0007538461538461538,0.0034769230769230767,0.000787179487179487,0.0007907692307692306
1785789203.5390625,0.0041394871794871784,0.004251282051282051,0.002749230769230769,0.003429230769230769,0.004268717948717948,0.00650051282051282,0.006837435897435897,0.007156410256410255,0.007162051282051281,0.007551794871794871,0.0007538461538461538,0.0034748717948717943,0.000787179487179487,0.0007897435897435897
1785789203.546875,0.004138461538461538,0.004251282051282051,0.002749230769230769,0.0034358974358974356,0.004268717948717948,0.0064994871794871786,0.006835897435897435,0.007155897435897435,0.007165641025641025,0.007551794871794871,0.0007538461538461538,0.0034779487179487176,0.000787179487179487,0.0007876923076923076
1785789203.5546875,0.004138461538461538,0.004251282051282051,0.0027497435897435893,0.003433846153846153,0.004268717948717948,0.006498461538461538,0.0068348717948717936,0.007154358974358973,0.007165128205128204,0.007551794871794871,0.0007538461538461538,0.0034810256410256406,0.000787179487179487,0.0007897435897435897
1785789203.5625,0.004138974358974358,0.004251282051282051,0.002749230769230769,0.0034282051282051276,0.004268717948717948,0.006499999999999999,0.006837435897435897,0.007152820512820512,0.00716051282051282,0.007551794871794871,0.0007538461538461538,0.0034779487179487176,0.000787179487179487,0.0007897435897435897
1785789203.5703125,0.004138461538461538,0.004251282051282051,0.002749230769230769,0.0034297435897435893,0.004268717948717948,0.00650102564102564,0.006838461538461538,0.007149743589743588,0.007159999999999999,0.007551794871794871,0.0007538461538461538,0.003474358974358974,0.000787179487179487,0.0007866666666666666
1785789203.578125,0.004137435897435897,0.004251282051282051,0.00275025641025641,0.0034312820512820506,0.004268717948717948,0.0064994871794871786,0.0068369230769230755,0.007151282051282051,0.007163076923076922,0.007551794871794871,0.0007538461538461538,0.0034769230769230767,0.000787179487179487,0.000787179487179487
1785789203.5859375,0.004137948717948718,0.004251282051282051,0.0027497435897435893,0.0034282051282051276,0.004268717948717948,0.0064994871794871786,0.0068369230769230755,0.007155384615384614,0.007162564102564101,0.007551794871794871,0.0007538461538461538,0.0034799999999999996,0.000787179487179487,0.0007882051282051281
1785789203.59375,0.00414,0.004251282051282051,0.0027487179487179483,0.0034271794871794867,0.004268717948717948,0.00650102564102564,0.006838461538461538,0.007155897435897435,0.0071615384615384605,0.007551794871794871,0.0007538461538461538,0.0034799999999999996,0.000787179487179487,0.0007866666666666666
1785789203.6015625,0.004138974358974358,0.004251282051282051,0.00275025641025641,0.0034266666666666664,0.004268717948717948,0.006503076923076922,0.006838461538461538,0.007151794871794871,0.007158461538461538,0.007551794871794871,0.0007538461538461538,0.003478974358974358,0.000787179487179487,0.000787179487179487
1785789203.609375,0.004138461538461538,0.004251282051282051,0.0027512820512820505,0.003428717948717948,0.004268717948717948,0.006502564102564101,0.006838461538461538,0.007152820512820512,0.007158461538461538,0.007551794871794871,0.0007538461538461538,0.003477435897435897,0.000787179487179487,0.0007876923076923076
1785789203.6171875,0.00414,0.004251282051282051,0.002749230769230769,0.0034256410256410254,0.004268717948717948,0.00650051282051282,0.006837948717948718,0.007154358974358973,0.007162564102564101,0.007551794871794871,0.0007538461538461538,0.0034769230769230767,0.000787179487179487,0.0007866666666666666
1785789203.625,0.004137948717948718,0.004251282051282051,0.002749230769230769,0.003422564102564102,0.004268717948717948,0.006499999999999999,0.006837435897435897,0.0071548717948717935,0.007163076923076922,0.007551794871794871,0.0007538461538461538,0.003479487179487179,0.000787179487179487,0.0007876923076923076
1785789203.6328125,0.004136410256410256,0.004251282051282051,0.00275025641025641,0.0034261538461538457,0.004268717948717948,0.0065015384615384605,0.006838974358974358,0.007155897435897435,0.007159999999999999,0.007551794871794871,0.0007538461538461538,0.0034769230769230767,0.000787179487179487,0.0007897435897435897
1785789203.640625,0.004137948717948718,0.004251282051282051,0.0027497435897435893,0.0034328205128205127,0.004268717948717948,0.00650102564102564,0.006839487179487179,0.0071569230769230755,0.007162564102564101,0.007551794871794871,0.0007538461538461538,0.0034717948717948714,0.000787179487179487,0.0007892307692307692
1785789203.6484375,0.004138461538461538,0.004251282051282051,0.00275025641025641,0.00343025641025641,0.004268717948717948,0.00650051282051282,0.0068369230769230755,0.007153846153846153,0.007165128205128204,0.007551794871794871,0.0007538461538461538,0.003475384615384615,0.000787179487179487,0.0007866666666666666
1785789203.65625,0.004137435897435897,0.004251282051282051,0.0027507692307692302,0.0034271794871794867,0.004268717948717948,0.00650102564102564,0.006836410256410255,0.007152307692307691,0.007162051282051281,0.007551794871794871,0.0007538461538461538,0.003478974358974358,0.000787179487179487,0.0007876923076923076
1785789203.6640625,0.004138461538461538,0.004251282051282051,0.00275025641025641,0.003428717948717948,0.004268717948717948,0.00650102564102564,0.006838461538461538,0.0071548717948717935,0.0071615384615384605,0.007551794871794871,0.0007538461538461538,0.0034769230769230767,0.000787179487179487,0.0007897435897435897
1785789203.671875,0.004138974358974358,0.004251282051282051,0.00275025641025641,0.003428717948717948,0.004268717948717948,0.006502051282051281,0.00684051282051282,0.0071548717948717935,0.0071635897435897425,0.007551794871794871,0.0007538461538461538,0.0034779487179487176,0.000787179487179487,0.0007876923076923076
1785789203.6796875,0.004137948717948718,0.004251282051282051,0.00275025641025641,0.0034297435897435893,0.004268717948717948,0.0065015384615384605,0.006838974358974358,0.007153846153846153,0.00716102564102564,0.007551794871794871,0.0007538461538461538,0.0034810256410256406,0.000787179487179487,0.0007882051282051281
1785789203.6875,0.004137435897435897,0.004251282051282051,0.002749230769230769,0.0034312820512820506,0.004268717948717948,0.006499999999999999,0.006838974358974358,0.007154358974358973,0.0071569230769230755,0.007551794871794871,0.0007538461538461538,0.003479487179487179,0.000787179487179487,0.0007902564102564101
1785789203.6953125,0.004137948717948718,0.004251282051282051,0.0027497435897435893,0.0034328205128205127,0.004268717948717948,0.006499999999999999,0.00684051282051282,0.007155384615384614,0.007158461538461538,0.007551794871794871,0.0007538461538461538,0.0034769230769230767,0.000787179487179487,0.0007882051282051281
1785789203.703125,0.004137948717948718,0.004251282051282051,0.0027512820512820505,0.003427692307692307,0.004268717948717948,0.006502051282051281,0.006838974358974358,0.007151794871794871,0.007159999999999999,0.007551794871794871,0.0007538461538461538,0.0034758974358974353,0.000787179487179487,0.0007856410256410254
1785789203.7109375,0.004136410256410256,0.004251282051282051,0.0027497435897435893,0.003416410256410256,0.004268717948717948,0.006503076923076922,0.00684051282051282,0.007143076923076922,0.007152820512820512,0.007551794871794871,0.0007538461538461538,0.0034748717948717943,0.000787179487179487,0.000787179487179487
1785789203.71875,0.004136923076923076,0.004251282051282051,0.002749230769230769,0.003418974358974359,0.004268717948717948,0.006503076923076922,0.006844102564102564,0.007143076923076922,0.007151282051282051,0.007551794871794871,0.0007538461538461538,0.003474358974358974,0.000787179487179487,0.0007866666666666666
1785789203.7265625,0.0041394871794871784,0.004251282051282051,0.00275025641025641,0.003434358974358974,0.004268717948717948,0.0064994871794871786,0.00684102564102564,0.007157435897435897,0.007166666666666666,0.007551794871794871,0.0007538461538461538,0.003477435897435897,0.000787179487179487,0.000786153846153846
1785789203.734375,0.0041394871794871784,0.004251282051282051,0.00275025641025641,0.0034358974358974356,0.004268717948717948,0.006496923076923076,0.006834358974358973,0.007163076923076922,0.007175384615384614,0.007551794871794871,0.0007538461538461538,0.0034758974358974353,0.000787179487179487,0.0007887179487179486
1785789203.7421875,0.004138974358974358,0.004251282051282051,0.0027497435897435893,0.003427692307692307,0.004268717948717948,0.006499999999999999,0.006834358974358973,0.007157435897435897,0.0071682051282051275,0.007551794871794871,0.0007538461538461538,0.0034692307692307687,0.000787179487179487,0.0007882051282051281
1785789203.75,0.00414,0.004251282051282051,0.0027497435897435893,0.0034251282051282043,0.004268717948717948,0.0065015384615384605,0.006837948717948718,0.007155384615384614,0.007163076923076922,0.007551794871794871,0.0007538461538461538,0.0034717948717948714,0.000787179487179487,0.0007866666666666666
1785789203.7578125,0.004138974358974358,0.004251282051282051,0.0027507692307692302,0.003427692307692307,0.004268717948717948,0.006499999999999999,0.006838461538461538,0.0071548717948717935,0.007163076923076922,0.007551794871794871,0.0007538461538461538,0.003479487179487179,0.000787179487179487,0.0007876923076923076
1785789203.765625,0.004137435897435897,0.004251282051282051,0.0027507692307692302,0.003427692307692307,0.004268717948717948,0.00650102564102564,0.006837948717948718,0.007151794871794871,0.007159999999999999,0.007551794871794871,0.0007538461538461538,0.0034779487179487176,0.000787179487179487,0.000787179487179487
1785789203.7734375,0.0041394871794871784,0.004251282051282051,0.00275025641025641,0.0034266666666666664,0.004268717948717948,0.006502564102564101,0.006838461538461538,0.007153846153846153,0.0071615384615384605,0.007551794871794871,0.0007538461538461538,0.003475384615384615,0.000787179487179487,0.000787179487179487
1785789203.78125,0.004138974358974358,0.004251282051282051,0.00275025641025641,0.0034241025641025638,0.004268717948717948,0.00650051282051282,0.00684102564102564,0.007153846153846153,0.00716102564102564,0.007551794871794871,0.0007538461538461538,0.0034779487179487176,0.000787179487179487,0.0007882051282051281
1785789203.7890625,0.004137435897435897,0.004251282051282051,0.0027507692307692302,0.003428717948717948,0.004268717948717948,0.00650051282051282,0.0068415384615384605,0.007151282051282051,0.007156410256410255,0.007551794871794871,0.0007538461538461538,0.0034779487179487176,0.000787179487179487,0.0007892307692307692
1785789203.796875,0.004138974358974358,0.004251282051282051,0.0027507692307692302,0.003436410256410256,0.004268717948717948,0.006499999999999999,0.0068369230769230755,0.007155897435897435,0.00716051282051282,0.007551794871794871,0.0007538461538461538,0.003477435897435897,0.000787179487179487,0.0007907692307692306
1785789203.8046875,0.004138461538461538,0.004251282051282051,0.0027497435897435893,0.0034328205128205127,0.004268717948717948,0.006498974358974358,0.006836410256410255,0.007157435897435897,0.007165641025641025,0.007551794871794871,0.0007538461538461538,0.003478461538461538,0.000787179487179487,0.0007907692307692306
1785789203.8125,0.004136923076923076,0.004251282051282051,0.0027487179487179483,0.003428717948717948,0.004268717948717948,0.0064994871794871786,0.006839999999999999,0.0071507692307692305,0.007158461538461538,0.007551794871794871,0.0007538461538461538,0.003478461538461538,0.000787179487179487,0.0007912820512820511
1785789203.8203125,0.004137948717948718,0.004251282051282051,0.002749230769230769,0.0034307692307692303,0.004268717948717948,0.0065015384615384605,0.00684102564102564,0.007147179487179486,0.007153846153846153,0.007551794871794871,0.0007538461538461538,0.003478461538461538,0.000787179487179487,0.000787179487179487
1785789203.828125,0.0041394871794871784,0.004251282051282051,0.0027507692307692302,0.003433846153846153,0.004268717948717948,0.006502051282051281,0.006836410256410255,0.007154358974358973,0.0071615384615384605,0.007551794871794871,0.0007538461538461538,0.0034769230769230767,0.000787179487179487,0.0007882051282051281
1785789203.8359375,0.0041394871794871784,0.004251282051282051,0.0027507692307692302,0.003433846153846153,0.004268717948717948,0.006498974358974358,0.006833846153846153,0.0071615384615384605,0.0071661538461538455,0.007551794871794871,0.0007538461538461538,0.0034779487179487176,0.000787179487179487,0.0007974358974358973
1785789203.84375,0.004138461538461538,0.004251282051282051,0.002749230769230769,0.0034307692307692303,0.004268717948717948,0.006497948717948718,0.006838974358974358,0.007155384615384614,0.00716102564102564,0.007551794871794871,0.0007538461538461538,0.0034779487179487176,0.000787179487179487,0.0007964102564102563
1785789203.8515625,0.004137948717948718,0.004251282051282051,0.002749230769230769,0.003429230769230769,0.004268717948717948,0.006502051282051281,0.0068415384615384605,0.007145641025641025,0.007156410256410255,0.007551794871794871,0.0007538461538461538,0.0034748717948717943,0.000787179487179487,0.0007856410256410254
1785789203.859375,0.004138461538461538,0.004251282051282051,0.002749230769230769,0.0034328205128205127,0.004268717948717948,0.006502564102564101,0.0068369230769230755,0.007152307692307691,0.007159999999999999,0.007551794871794871,0.0007538461538461538,0.003475384615384615,0.000787179487179487,0.0007846153846153845
1785789203.8671875,0.004138461538461538,0.004251282051282051,0.00275025641025641,0.0034312820512820506,0.004268717948717948,0.006499999999999999,0.006835897435897435,0.0071569230769230755,0.007162564102564101,0.007551794871794871,0.0007538461538461538,0.003478461538461538,0.000787179487179487,0.0007897435897435897
1785789203.875,0.004137435897435897,0.004251282051282051,0.00275025641025641,0.0034271794871794867,0.004268717948717948,0.0065015384615384605,0.006838461538461538,0.007152820512820512,0.007159999999999999,0.007551794871794871,0.0007538461538461538,0.0034769230769230767,0.000787179487179487,0.000787179487179487
1785789203.8828125,0.004138461538461538,0.004251282051282051,0.00275025641025641,0.0034282051282051276,0.004268717948717948,0.006502564102564101,0.0068369230769230755,0.0071548717948717935,0.00716051282051282,0.007551794871794871,0.0007538461538461538,0.0034758974358974353,0.000787179487179487,0.0007851282051282051
1785789203.890625,0.0041394871794871784,0.004251282051282051,0.0027507692307692302,0.0034261538461538457,0.004268717948717948,0.006498461538461538,0.006837435897435897,0.007155384615384614,0.007162051282051281,0.007551794871794871,0.0007538461538461538,0.0034779487179487176,0.000787179487179487,0.000787179487179487
1785789203.8984375,0.004136923076923076,0.004251282051282051,0.0027497435897435893,0.0034179487179487175,0.004268717948717948,0.006503589743589743,0.006842564102564101,0.007143076923076922,0.007153846153846153,0.007551794871794871,0.0007538461538461538,0.0034748717948717943,0.000787179487179487,0.000787179487179487
1785789203.90625,0.004137948717948718,0.004251282051282051,0.00275025641025641,0.0034261538461538457,0.004268717948717948,0.006505641025641025,0.0068415384615384605,0.007145641025641025,0.007153846153846153,0.007551794871794871,0.0007538461538461538,0.0034738461538461533,0.000787179487179487,0.0007887179487179486
1785789203.9140625,0.00414051282051282,0.004251282051282051,0.0027512820512820505,0.003437435897435897,0.004268717948717948,0.006495384615384615,0.006835384615384614,0.007163076923076922,0.0071661538461538455,0.007551794871794871,0.0007538461538461538,0.0034728205128205123,0.000787179487179487,0.0007887179487179486
1785789203.921875,0.004138461538461538,0.004251282051282051,0.0027497435897435893,0.003433846153846153,0.004268717948717948,0.006493333333333333,0.006835384615384614,0.007162564102564101,0.007171282051282051,0.007551794871794871,0.0007538461538461538,0.0034728205128205123,0.000787179487179487,0.0007887179487179486
1785789203.9296875,0.004137435897435897,0.004251282051282051,0.002749230769230769,0.0034312820512820506,0.004268717948717948,0.0065015384615384605,0.006837435897435897,0.007152820512820512,0.007166666666666666,0.007551794871794871,0.0007538461538461538,0.0034758974358974353,0.000787179487179487,0.0007897435897435897
1785789203.9375,0.004138461538461538,0.004251282051282051,0.0027512820512820505,0.003432307692307692,0.004268717948717948,0.006502051282051281,0.006835897435897435,0.007153846153846153,0.007164102564102564,0.007551794871794871,0.0007538461538461538,0.003478461538461538,0.000787179487179487,0.0007902564102564101
1785789203.9453125,0.004136410256410256,0.004251282051282051,0.00275025641025641,0.0034282051282051276,0.004268717948717948,0.006498974358974358,0.006837435897435897,0.007152820512820512,0.00716051282051282,0.007551794871794871,0.0007538461538461538,0.0034764102564102555,0.000787179487179487,0.0007887179487179486
1785789203.953125,0.004135897435897436,0.004251282051282051,0.0027487179487179483,0.0034282051282051276,0.004268717948717948,0.006502051282051281,0.006839999999999999,0.007147692307692306,0.007155384615384614,0.007551794871794871,0.0007538461538461538,0.0034748717948717943,0.000787179487179487,0.0007866666666666666
1785789203.9609375,0.004138974358974358,0.004251282051282051,0.002749230769230769,0.003433333333333333,0.004268717948717948,0.006502051282051281,0.0068369230769230755,0.007152820512820512,0.00716102564102564,0.007551794871794871,0.0007538461538461538,0.0034764102564102555,0.000787179487179487,0.0007882051282051281
1785789203.96875,0.004138974358974358,0.004251282051282051,0.00275025641025641,0.0034328205128205127,0.004268717948717948,0.00650051282051282,0.006835384615384614,0.0071569230769230755,0.007165128205128204,0.007551794871794871,0.0007538461538461538,0.0034769230769230767,0.000787179487179487,0.0007892307692307692
1785789203.9765625,0.004137948717948718,0.004251282051282051,0.0027497435897435893,0.0034317948717948713,0.004268717948717948,0.0065015384615384605,0.006836410256410255,0.007155384615384614,0.007162564102564101,0.007551794871794871,0.0007538461538461538,0.0034769230769230767,0.000787179487179487,0.0007892307692307692
1785789203.984375,0.004137948717948718,0.004251282051282051,0.0027497435897435893,0.00343025641025641,0.004268717948717948,0.00650051282051282,0.0068369230769230755,0.0071548717948717935,0.007162564102564101,0.0075523076923076915,0.0007538461538461538,0.0034758974358974353,0.000787179487179487,0.0007887179487179486
1785789203.9921875,0.004138461538461538,0.004251282051282051,0.0027497435897435893,0.0034261538461538457,0.004268717948717948,0.006499999999999999,0.006837435897435897,0.007153846153846153,0.007163076923076922,0.007552820512820512,0.0007538461538461538,0.0034764102564102555,0.000787179487179487,0.000787179487179487
1785789204.0,0.004137948717948718,0.004251282051282051,0.00275025641025641,0.0034230769230769228,0.004268717948717948,0.0065015384615384605,0.006838461538461538,0.007147179487179486,0.007157435897435897,0.007551794871794871,0.0007538461538461538,0.003475384615384615,0.000787179487179487,0.000786153846153846
1785789204.0078125,0.004138461538461538,0.004251282051282051,0.0027507692307692302,0.0034271794871794867,0.004268717948717948,0.006502564102564101,0.006837435897435897,0.007148205128205127,0.007155897435897435,0.0075523076923076915,0.0007538461538461538,0.003474358974358974,0.000787179487179487,0.0007866666666666666
1785789204.015625,0.004138461538461538,0.004251282051282051,0.0027497435897435893,0.003429230769230769,0.004268717948717948,0.00650051282051282,0.006837435897435897,0.007155897435897435,0.007163076923076922,0.0075523076923076915,0.0007538461538461538,0.003477435897435897,0.000787179487179487,0.000786153846153846
1785789204.0234375,0.004138974358974358,0.004251282051282051,0.002749230769230769,0.0034271794871794867,0.004268717948717948,0.006498974358974358,0.006838974358974358,0.007156410256410255,0.007164615384615384,0.00755076923076923,0.0007538461538461538,0.0034805128205128203,0.000787179487179487,0.0007856410256410254
1785789204.03125,0.004138974358974358,0.004251282051282051,0.0027507692307692302,0.003423589743589743,0.004268717948717948,0.00650102564102564,0.006838974358974358,0.007153333333333333,0.00716051282051282,0.007551794871794871,0.0007538461538461538,0.003475384615384615,0.000787179487179487,0.000787179487179487
1785789204.0390625,0.004137948717948718,0.004251282051282051,0.00275025641025641,0.0034261538461538457,0.004268717948717948,0.006502564102564101,0.006837948717948718,0.007156410256410255,0.007162564102564101,0.007553846153846153,0.0007538461538461538,0.0034712820512820507,0.000787179487179487,0.0007882051282051281
1785789204.046875,0.004137948717948718,0.004251282051282051,0.0027471794871794866,0.003429230769230769,0.004268717948717948,0.0065015384615384605,0.0068369230769230755,0.0071569230769230755,0.0071661538461538455,0.007551794871794871,0.0007538461538461538,0.0034758974358974353,0.000787179487179487,0.000787179487179487
1785789204.0546875,0.004138461538461538,0.004251282051282051,0.002748205128205128,0.0034282051282051276,0.004268717948717948,0.00650051282051282,0.006838461538461538,0.007152820512820512,0.0071635897435897425,0.00755128205128205,0.0007538461538461538,0.003478974358974358,0.000787179487179487,0.000787179487179487
1785789204.0625,0.004138461538461538,0.004251282051282051,0.0027507692307692302,0.003428717948717948,0.004268717948717948,0.006499999999999999,0.006839999999999999,0.007152307692307691,0.0071635897435897425,0.007553333333333333,0.0007538461538461538,0.0034764102564102555,0.000787179487179487,0.0007887179487179486
1785789204.0703125,0.004136923076923076,0.004251282051282051,0.0027497435897435893,0.0034251282051282043,0.004268717948717948,0.00650051282051282,0.006839487179487179,0.007152307692307691,0.0071635897435897425,0.007552820512820512,0.0007538461538461538,0.003474358974358974,0.000787179487179487,0.0007851282051282051
1785789204.078125,0.004137948717948718,0.004251282051282051,0.0027497435897435893,0.0034241025641025638,0.004268717948717948,0.0065015384615384605,0.006839487179487179,0.007151794871794871,0.0071615384615384605,0.007551794871794871,0.0007538461538461538,0.0034758974358974353,0.000787179487179487,0.0007892307692307692
1785789204.0859375,0.004138461538461538,0.004251282051282051,0.0027517948717948717,0.0034297435897435893,0.004268717948717948,0.00650051282051282,0.00684051282051282,0.007154358974358973,0.007162564102564101,0.007551794871794871,0.0007538461538461538,0.0034764102564102555,0.000787179487179487,0.0007969230769230769
1785789204.09375,0.004136923076923076,0.004251282051282051,0.0027497435897435893,0.0034307692307692303,0.004268717948717948,0.006498974358974358,0.00684051282051282,0.007155897435897435,0.007162564102564101,0.0075523076923076915,0.0007538461538461538,0.0034758974358974353,0.000787179487179487,0.0007912820512820511
1785789204.1015625,0.004137435897435897,0.004251282051282051,0.0027476923076923073,0.0034282051282051276,0.004268717948717948,0.006503076923076922,0.00684051282051282,0.007153333333333333,0.007156410256410255,0.007551794871794871,0.0007538461538461538,0.0034758974358974353,0.000787179487179487,0.0007841025641025641
1785789204.109375,0.004138974358974358,0.004251282051282051,0.0027497435897435893,0.0034328205128205127,0.004268717948717948,0.006503589743589743,0.006838974358974358,0.007156410256410255,0.007158461538461538,0.007551794871794871,0.0007538461538461538,0.0034764102564102555,0.000787179487179487,0.0007882051282051281
1785789204.1171875,0.004137435897435897,0.004251282051282051,0.0027512820512820505,0.0034307692307692303,0.004268717948717948,0.006502051282051281,0.006837435897435897,0.007157948717948717,0.007165641025641025,0.007551794871794871,0.0007538461538461538,0.003479487179487179,0.000787179487179487,0.0007902564102564101
1785789204.125,0.004138461538461538,0.004251282051282051,0.0027497435897435893,0.0034256410256410254,0.004268717948717948,0.006503076923076922,0.006838461538461538,0.007157948717948717,0.007164102564102564,0.007551794871794871,0.0007538461538461538,0.0034805128205128203,0.000787179487179487,0.000787179487179487
1785789204.1328125,0.00414102564102564,0.004251282051282051,0.002749230769230769,0.0034261538461538457,0.004268717948717948,0.006502564102564101,0.006838974358974358,0.007155384615384614,0.00716102564102564,0.007551794871794871,0.0007538461538461538,0.0034758974358974353,0.000787179487179487,0.0007882051282051281
1785789204.140625,0.0041394871794871784,0.004251282051282051,0.0027497435897435893,0.0034251282051282043,0.004268717948717948,0.00650051282051282,0.006837948717948718,0.007151794871794871,0.007162051282051281,0.007551794871794871,0.0007538461538461538,0.003473333333333333,0.000787179487179487,0.0007876923076923076
1785789204.1484375,0.004137435897435897,0.004251282051282051,0.00275025641025641,0.0034251282051282043,0.004268717948717948,0.00650102564102564,0.00684102564102564,0.007151794871794871,0.007162051282051281,0.007551794871794871,0.0007538461538461538,0.0034748717948717943,0.000787179487179487,0.0007851282051282051
1785789204.15625,0.004138461538461538,0.004251282051282051,0.002749230769230769,0.0034317948717948713,0.004268717948717948,0.006502051282051281,0.006842564102564101,0.0071548717948717935,0.007163076923076922,0.007551794871794871,0.0007538461538461538,0.0034769230769230767,0.000787179487179487,0.000787179487179487
1785789204.1640625,0.004138461538461538,0.004251282051282051,0.002749230769230769,0.0034282051282051276,0.004268717948717948,0.006502564102564101,0.006838461538461538,0.007155384615384614,0.0071635897435897425,0.007551794871794871,0.0007538461538461538,0.0034758974358974353,0.000787179487179487,0.0007892307692307692
1785789204.171875,0.004137948717948718,0.004251282051282051,0.00275025641025641,0.003422051282051282,0.004268717948717948,0.006503589743589743,0.006836410256410255,0.007155897435897435,0.007162564102564101,0.007551794871794871,0.0007538461538461538,0.0034723076923076916,0.000787179487179487,0.0007892307692307692
1785789204.1796875,0.004138974358974358,0.004251282051282051,0.0027507692307692302,0.0034271794871794867,0.004268717948717948,0.006502051282051281,0.006837948717948718,0.0071569230769230755,0.007162051282051281,0.007551794871794871,0.0007538461538461538,0.003474358974358974,0.000787179487179487,0.0007892307692307692
1785789204.1875,0.004138461538461538,0.004251282051282051,0.002749230769230769,0.00343025641025641,0.004268717948717948,0.00650102564102564,0.006837948717948718,0.007152820512820512,0.007162564102564101,0.007551794871794871,0.0007538461538461538,0.0034799999999999996,0.000787179487179487,0.0007887179487179486
1785789204.1953125,0.004137435897435897,0.004251282051282051,0.0027487179487179483,0.0034271794871794867,0.004268717948717948,0.0065015384615384605,0.006837948717948718,0.007153333333333333,0.007162564102564101,0.007551794871794871,0.0007538461538461538,0.003479487179487179,0.000787179487179487,0.0007912820512820511
1785789204.203125,0.004138461538461538,0.004251282051282051,0.0027497435897435893,0.0034251282051282043,0.004268717948717948,0.006499999999999999,0.006839999999999999,0.007158461538461538,0.007164102564102564,0.007551794871794871,0.0007538461538461538,0.003475384615384615,0.000787179487179487,0.0007907692307692306
1785789204.2109375,0.00414051282051282,0.004251282051282051,0.0027512820512820505,0.0034282051282051276,0.004268717948717948,0.0064994871794871786,0.006837948717948718,0.007159999999999999,0.007164102564102564,0.007551794871794871,0.0007538461538461538,0.003477435897435897,0.000787179487179487,0.0007933333333333332
1785789204.21875,0.0041394871794871784,0.004251282051282051,0.0027507692307692302,0.0034317948717948713,0.004268717948717948,0.006502051282051281,0.006837948717948718,0.007155897435897435,0.007163076923076922,0.007551794871794871,0.0007538461538461538,0.003479487179487179,0.000787179487179487,0.0007964102564102563
1785789204.2265625,0.004136410256410256,0.004251282051282051,0.0027487179487179483,0.0034312820512820506,0.004268717948717948,0.006502051282051281,0.00684102564102564,0.007154358974358973,0.007162051282051281,0.007551794871794871,0.0007538461538461538,0.0034769230769230767,0.000787179487179487,0.0007923076923076922
1785789204.234375,0.004137435897435897,0.004251282051282051,0.0027487179487179483,0.0034266666666666664,0.004268717948717948,0.00650051282051282,0.006839487179487179,0.007153333333333333,0.0071615384615384605,0.007551794871794871,0.0007538461538461538,0.003475384615384615,0.000787179487179487,0.0007882051282051281
1785789204.2421875,0.004137948717948718,0.004251282051282051,0.00275025641025641,0.0034271794871794867,0.004268717948717948,0.006502051282051281,0.006837948717948718,0.007152820512820512,0.0071615384615384605,0.007551794871794871,0.0007538461538461538,0.003475384615384615,0.000787179487179487,0.0007892307692307692
1785789204.25,0.004138461538461538,0.004251282051282051,0.0027507692307692302,0.0034271794871794867,0.004268717948717948,0.006502564102564101,0.00684102564102564,0.007153333333333333,0.0071635897435897425,0.007551794871794871,0.0007538461538461538,0.003475384615384615,0.000787179487179487,0.0007897435897435897
1785789204.2578125,0.004138461538461538,0.004251282051282051,0.00275025641025641,0.00342051282051282,0.004268717948717948,0.006499999999999999,0.006842564102564101,0.007152307692307691,0.007162564102564101,0.007551794871794871,0.0007538461538461538,0.0034748717948717943,0.000787179487179487,0.000787179487179487
1785789204.265625,0.004137435897435897,0.004251282051282051,0.0027507692307692302,0.0034153846153846153,0.004268717948717948,0.006505641025641025,0.0068435897435897425,0.007148205128205127,0.007155897435897435,0.007551794871794871,0.0007538461538461538,0.0034738461538461533,0.000787179487179487,0.000787179487179487
1785789204.2734375,0.004137435897435897,0.004251282051282051,0.0027507692307692302,0.0034199999999999994,0.004268717948717948,0.0065082051282051275,0.006844102564102564,0.007151282051282051,0.007155384615384614,0.007551794871794871,0.0007538461538461538,0.0034738461538461533,0.000787179487179487,0.000787179487179487
1785789204.28125,0.004138974358974358,0.004251282051282051,0.00275025641025641,0.0034261538461538457,0.004268717948717948,0.006503076923076922,0.00684051282051282,0.007159999999999999,0.007165128205128204,0.007551794871794871,0.0007538461538461538,0.0034764102564102555,0.000787179487179487,0.0007856410256410254
1785789204.2890625,0.0041394871794871784,0.004251282051282051,0.00275025641025641,0.003427692307692307,0.004268717948717948,0.006502564102564101,0.006837948717948718,0.00716051282051282,0.0071702564102564086,0.007551794871794871,0.0007538461538461538,0.003478974358974358,0.000787179487179487,0.000787179487179487
1785789204.296875,0.004138461538461538,0.004251282051282051,0.00275025641025641,0.0034230769230769228,0.004268717948717948,0.0065061538461538455,0.00684051282051282,0.0071548717948717935,0.0071661538461538455,0.007551794871794871,0.0007538461538461538,0.003475384615384615,0.000787179487179487,0.0007882051282051281
1785789204.3046875,0.004138974358974358,0.004251282051282051,0.00275025641025641,0.00342051282051282,0.004268717948717948,0.006504615384615384,0.0068415384615384605,0.0071548717948717935,0.007165128205128204,0.007551794871794871,0.0007538461538461538,0.0034723076923076916,0.000787179487179487,0.0007892307692307692
1785789204.3125,0.004138461538461538,0.004251282051282051,0.002749230769230769,0.0034261538461538457,0.004268717948717948,0.006502051282051281,0.006839999999999999,0.007157435897435897,0.0071682051282051275,0.007551794871794871,0.0007538461538461538,0.0034758974358974353,0.000787179487179487,0.0007876923076923076
1785789204.3203125,0.004137435897435897,0.004251282051282051,0.00275025641025641,0.003427692307692307,0.004268717948717948,0.006502564102564101,0.0068415384615384605,0.007155897435897435,0.007165128205128204,0.007551794871794871,0.0007538461538461538,0.0034779487179487176,0.000787179487179487,0.000787179487179487
1785789204.328125,0.004138461538461538,0.004251282051282051,0.0027512820512820505,0.003421538461538461,0.004268717948717948,0.006503076923076922,0.0068435897435897425,0.007155384615384614,0.007162564102564101,0.007551794871794871,0.0007538461538461538,0.0034728205128205123,0.000787179487179487,0.0007876923076923076
1785789204.3359375,0.004137948717948718,0.004251282051282051,0.00275025641025641,0.003419487179487179,0.004268717948717948,0.006504615384615384,0.006844102564102564,0.0071569230769230755,0.007164102564102564,0.007551794871794871,0.0007538461538461538,0.0034728205128205123,0.000787179487179487,0.0007866666666666666
1785789204.34375,0.004136410256410256,0.004251282051282051,0.0027497435897435893,0.0034251282051282043,0.004268717948717948,0.0065061538461538455,0.006842564102564101,0.0071569230769230755,0.007164102564102564,0.007551794871794871,0.0007538461538461538,0.003478461538461538,0.000787179487179487,0.0007897435897435897
1785789204.3515625,0.004136923076923076,0.004251282051282051,0.00275025641025641,0.003424615384615384,0.004268717948717948,0.006505641025641025,0.006844615384615384,0.0071548717948717935,0.0071635897435897425,0.007551794871794871,0.0007538461538461538,0.0034764102564102555,0.000787179487179487,0.0007892307692307692
1785789204.359375,0.004138974358974358,0.004251282051282051,0.00275025641025641,0.003427692307692307,0.004268717948717948,0.006503076923076922,0.006843076923076922,0.00716051282051282,0.007169230769230768,0.007551794871794871,0.0007538461538461538,0.003475384615384615,0.000787179487179487,0.0007897435897435897
1785789204.3671875,0.004138974358974358,0.004251282051282051,0.0027512820512820505,0.003433846153846153,0.004268717948717948,0.006503076923076922,0.00684051282051282,0.007164102564102564,0.007169743589743588,0.007551794871794871,0.0007538461538461538,0.0034805128205128203,0.000787179487179487,0.0007958974358974357
1785789204.375,0.004137948717948718,0.004251282051282051,0.0027512820512820505,0.0034317948717948713,0.004268717948717948,0.0065061538461538455,0.0068435897435897425,0.0071569230769230755,0.007165641025641025,0.007551794871794871,0.0007538461538461538,0.003479487179487179,0.000787179487179487,0.0007938461538461538
1785789204.3828125,0.004138461538461538,0.004251282051282051,0.002749230769230769,0.0034266666666666664,0.004268717948717948,0.006507692307692306,0.006845641025641025,0.0071548717948717935,0.007168717948717948,0.007551794871794871,0.0007538461538461538,0.0034758974358974353,0.000787179487179487,0.0007882051282051281
1785789204.390625,0.004138461538461538,0.004251282051282051,0.0027497435897435893,0.0034230769230769228,0.004268717948717948,0.0065061538461538455,0.006843076923076922,0.007158461538461538,0.0071682051282051275,0.007551794871794871,0.0007538461538461538,0.0034779487179487176,0.000787179487179487,0.0007876923076923076
1785789204.3984375,0.004136923076923076,0.004251282051282051,0.0027512820512820505,0.0034179487179487175,0.004268717948717948,0.006506666666666666,0.006844615384615384,0.0071548717948717935,0.007158974358974358,0.007551794871794871,0.0007538461538461538,0.0034779487179487176,0.000787179487179487,0.0007882051282051281
1785789204.40625,0.004138461538461538,0.004251282051282051,0.00275025641025641,0.00342051282051282,0.004268717948717948,0.006507179487179486,0.0068461538461538456,0.007152820512820512,0.007162051282051281,0.007551794871794871,0.0007538461538461538,0.0034738461538461533,0.000787179487179487,0.000786153846153846
1785789204.4140625,0.00414,0.004251282051282051,0.0027487179487179483,0.0034230769230769228,0.004268717948717948,0.006505641025641025,0.006843076923076922,0.007157948717948717,0.0071702564102564086,0.007551794871794871,0.0007538461538461538,0.0034728205128205123,0.000787179487179487,0.000786153846153846
1785789204.421875,0.004138461538461538,0.004251282051282051,0.0027512820512820505,0.0034199999999999994,0.004268717948717948,0.006504615384615384,0.0068435897435897425,0.0071594871794871786,0.007169230769230768,0.007551794871794871,0.0007538461538461538,0.0034758974358974353,0.000787179487179487,0.000787179487179487
1785789204.4296875,0.004138461538461538,0.004251282051282051,0.002754358974358974,0.003423589743589743,0.004268717948717948,0.006504615384615384,0.006843076923076922,0.0071594871794871786,0.007169743589743588,0.007551794871794871,0.0007538461538461538,0.0034758974358974353,0.000787179487179487,0.0007892307692307692
1785789204.4375,0.004138461538461538,0.004251282051282051,0.0027512820512820505,0.0034251282051282043,0.004268717948717948,0.006504615384615384,0.00684051282051282,0.007159999999999999,0.0071682051282051275,0.007551794871794871,0.0007538461538461538,0.0034758974358974353,0.000787179487179487,0.0007907692307692306
1785789204.4453125,0.004136410256410256,0.004251282051282051,0.002749230769230769,0.0034169230769230765,0.004268717948717948,0.006506666666666666,0.006846666666666666,0.007153333333333333,0.007159999999999999,0.007551794871794871,0.0007538461538461538,0.003477435897435897,0.000787179487179487,0.000786153846153846
1785789204.453125,0.004136923076923076,0.004251282051282051,0.0027507692307692302,0.0034179487179487175,0.004268717948717948,0.006509230769230768,0.006851794871794871,0.007148205128205127,0.007158461538461538,0.007551794871794871,0.0007538461538461538,0.0034769230769230767,0.000787179487179487,0.000786153846153846
1785789204.4609375,0.004138461538461538,0.004251282051282051,0.0027512820512820505,0.003427692307692307,0.004268717948717948,0.006507692307692306,0.006845128205128204,0.007154358974358973,0.0071661538461538455,0.007551794871794871,0.0007538461538461538,0.003473333333333333,0.000787179487179487,0.0007892307692307692
1785789204.46875,0.004137948717948718,0.004251282051282051,0.0027507692307692302,0.003423589743589743,0.004268717948717948,0.0065061538461538455,0.0068415384615384605,0.007159999999999999,0.0071702564102564086,0.007551794871794871,0.0007538461538461538,0.003474358974358974,0.000787179487179487,0.0007887179487179486
1785789204.4765625,0.004137435897435897,0.004251282051282051,0.00275025641025641,0.003422051282051282,0.004268717948717948,0.006506666666666666,0.006846666666666666,0.007157435897435897,0.007169230769230768,0.007551794871794871,0.0007538461538461538,0.003478461538461538,0.000787179487179487,0.0007887179487179486
1785789204.484375,0.004137435897435897,0.004251282051282051,0.0027497435897435893,0.0034266666666666664,0.004268717948717948,0.0065082051282051275,0.006846666666666666,0.007153846153846153,0.007168717948717948,0.007551794871794871,0.0007538461538461538,0.0034779487179487176,0.000787179487179487,0.000787179487179487
1785789204.4921875,0.004136923076923076,0.004251282051282051,0.0027497435897435893,0.003427692307692307,0.004268717948717948,0.006507179487179486,0.006842051282051281,0.00716051282051282,0.007169230769230768,0.007551794871794871,0.0007538461538461538,0.0034764102564102555,0.000787179487179487,0.0007887179487179486
1785789204.5,0.004136923076923076,0.004251282051282051,0.0027507692307692302,0.0034261538461538457,0.004268717948717948,0.006505128205128204,0.006844102564102564,0.007164102564102564,0.007168717948717948,0.007551794871794871,0.0007538461538461538,0.0034769230769230767,0.000787179487179487,0.0007923076923076922
1785789204.5078125,0.004137948717948718,0.004251282051282051,0.0027497435897435893,0.0034271794871794867,0.004268717948717948,0.006505641025641025,0.006846666666666666,0.007157948717948717,0.007168717948717948,0.007551794871794871,0.0007538461538461538,0.0034769230769230767,0.000787179487179487,0.0007933333333333332
1785789204.515625,0.004138461538461538,0.004251282051282051,0.00275025641025641,0.0034266666666666664,0.004268717948717948,0.0065082051282051275,0.0068461538461538456,0.007155897435897435,0.0071682051282051275,0.007551794871794871,0.0007538461538461538,0.0034758974358974353,0.000787179487179487,0.0007964102564102563
1785789204.5234375,0.004138974358974358,0.004251282051282051,0.0027507692307692302,0.0034261538461538457,0.004268717948717948,0.0065082051282051275,0.006845641025641025,0.007162051282051281,0.007169743589743588,0.007551794871794871,0.0007538461538461538,0.003474358974358974,0.000787179487179487,0.0007964102564102563
1785789204.53125,0.0041394871794871784,0.004251282051282051,0.0027507692307692302,0.0034230769230769228,0.004268717948717948,0.006507179487179486,0.006844102564102564,0.007162051282051281,0.007171282051282051,0.007551794871794871,0.0007538461538461538,0.003475384615384615,0.000787179487179487,0.0007902564102564101
1785789204.5390625,0.004138461538461538,0.004251282051282051,0.0027507692307692302,0.003418974358974359,0.004268717948717948,0.0065082051282051275,0.0068461538461538456,0.0071569230769230755,0.0071682051282051275,0.007551794871794871,0.0007538461538461538,0.0034758974358974353,0.000787179487179487,0.000787179487179487
1785789204.546875,0.004137435897435897,0.004251282051282051,0.002749230769230769,0.003416410256410256,0.004268717948717948,0.006509743589743588,0.006850769230769231,0.007154358974358973,0.007162051282051281,0.007551794871794871,0.0007538461538461538,0.0034738461538461533,0.000787179487179487,0.0007876923076923076
1785789204.5546875,0.004137948717948718,0.004251282051282051,0.0027507692307692302,0.003416410256410256,0.004268717948717948,0.0065107692307692306,0.006850256410256409,0.007155384615384614,0.0071615384615384605,0.007551794871794871,0.0007538461538461538,0.0034738461538461533,0.000787179487179487,0.0007866666666666666
1785789204.5625,0.004137435897435897,0.004251282051282051,0.0027528205128205126,0.0034179487179487175,0.004268717948717948,0.006509743589743588,0.006844102564102564,0.007158974358974358,0.007167692307692306,0.007551794871794871,0.0007538461538461538,0.003474358974358974,0.000787179487179487,0.000787179487179487
1785789204.5703125,0.004137435897435897,0.004251282051282051,0.0027517948717948717,0.003418974358974359,0.004268717948717948,0.006508717948717948,0.0068435897435897425,0.007162051282051281,0.0071702564102564086,0.007551794871794871,0.0007538461538461538,0.0034758974358974353,0.000787179487179487,0.0007892307692307692
1785789204.578125,0.004138974358974358,0.004251282051282051,0.0027507692307692302,0.0034210256410256404,0.004268717948717948,0.006509743589743588,0.006848717948717948,0.007162564102564101,0.007169230769230768,0.007551794871794871,0.0007538461538461538,0.0034769230769230767,0.000787179487179487,0.0007876923076923076
1785789204.5859375,0.004137948717948718,0.004251282051282051,0.00275025641025641,0.003422051282051282,0.004268717948717948,0.0065102564102564086,0.006850769230769231,0.0071615384615384605,0.0071702564102564086,0.007551794871794871,0.0007538461538461538,0.003475384615384615,0.000787179487179487,0.0007897435897435897
1785789204.59375,0.004135897435897436,0.004251282051282051,0.0027507692307692302,0.00342051282051282,0.004268717948717948,0.0065107692307692306,0.006851794871794871,0.007158974358974358,0.007169743589743588,0.007551794871794871,0.0007538461538461538,0.003474358974358974,0.000787179487179487,0.0007887179487179486
1785789204.6015625,0.004137435897435897,0.004251282051282051,0.00275025641025641,0.003418974358974359,0.004268717948717948,0.006512820512820512,0.006852307692307691,0.00716051282051282,0.0071661538461538455,0.007551794871794871,0.0007538461538461538,0.0034758974358974353,0.000787179487179487,0.0007856410256410254
1785789204.609375,0.004137435897435897,0.004251282051282051,0.0027497435897435893,0.0034230769230769228,0.004268717948717948,0.006512820512820512,0.006850256410256409,0.00716102564102564,0.007165641025641025,0.007551794871794871,0.0007538461538461538,0.0034779487179487176,0.000787179487179487,0.0007882051282051281
1785789204.6171875,0.004136923076923076,0.004251282051282051,0.0027497435897435893,0.0034261538461538457,0.004268717948717948,0.006508717948717948,0.006849230769230768,0.007157948717948717,0.0071707692307692306,0.007551794871794871,0.0007538461538461538,0.0034748717948717943,0.000787179487179487,0.0007912820512820511
1785789204.625,0.004138461538461538,0.004251282051282051,0.00275025641025641,0.0034251282051282043,0.004268717948717948,0.0065082051282051275,0.006850256410256409,0.007159999999999999,0.007173846153846153,0.007551794871794871,0.0007538461538461538,0.003474358974358974,0.000787179487179487,0.0007907692307692306
1785789204.6328125,0.004138461538461538,0.004251282051282051,0.00275025641025641,0.0034251282051282043,0.004268717948717948,0.0065107692307692306,0.006850769230769231,0.00716102564102564,0.007171282051282051,0.007551794871794871,0.0007538461538461538,0.003478974358974358,0.000787179487179487,0.0007882051282051281
1785789204.640625,0.004137435897435897,0.004251282051282051,0.0027497435897435893,0.00343025641025641,0.004268717948717948,0.006509743589743588,0.006848717948717948,0.00716102564102564,0.007171794871794871,0.007551794871794871,0.0007538461538461538,0.0034799999999999996,0.000787179487179487,0.0007876923076923076
1785789204.6484375,0.004138461538461538,0.004251282051282051,0.00275025641025641,0.00343025641025641,0.004268717948717948,0.006507179487179486,0.006845641025641025,0.007162564102564101,0.007174358974358973,0.007551794871794871,0.0007538461538461538,0.0034758974358974353,0.000787179487179487,0.0007943589743589743
1785789204.65625,0.004138461538461538,0.004251282051282051,0.0027507692307692302,0.0034241025641025638,0.004268717948717948,0.006508717948717948,0.006846666666666666,0.007162564102564101,0.007172820512820512,0.007551794871794871,0.0007538461538461538,0.0034764102564102555,0.000787179487179487,0.0007974358974358973
1785789204.6640625,0.004137948717948718,0.004251282051282051,0.0027507692307692302,0.003419487179487179,0.004268717948717948,0.0065107692307692306,0.006851282051282051,0.00716051282051282,0.0071702564102564086,0.007551794871794871,0.0007538461538461538,0.0034779487179487176,0.000787179487179487,0.0007902564102564101
1785789204.671875,0.004137948717948718,0.004251282051282051,0.0027507692307692302,0.00342051282051282,0.004268717948717948,0.0065102564102564086,0.006850256410256409,0.007162564102564101,0.007168717948717948,0.007551794871794871,0.0007538461538461538,0.003474358974358974,0.000787179487179487,0.0007856410256410254
1785789204.6796875,0.004137435897435897,0.004251282051282051,0.00275025641025641,0.003418974358974359,0.004268717948717948,0.006511794871794871,0.006847179487179486,0.007158974358974358,0.0071661538461538455,0.007551794871794871,0.0007538461538461538,0.0034748717948717943,0.000787179487179487,0.0007876923076923076
1785789204.6875,0.004137948717948718,0.004251282051282051,0.0027507692307692302,0.0034169230769230765,0.004268717948717948,0.006512307692307691,0.006849743589743588,0.0071548717948717935,0.007167179487179486,0.007551794871794871,0.0007538461538461538,0.0034764102564102555,0.000787179487179487,0.0007887179487179486
1785789204.6953125,0.004138461538461538,0.004251282051282051,0.00275025641025641,0.003418974358974359,0.004268717948717948,0.006507692307692306,0.0068482051282051275,0.007162051282051281,0.007172307692307691,0.007551794871794871,0.0007538461538461538,0.003475384615384615,0.000787179487179487,0.000787179487179487
1785789204.703125,0.004137948717948718,0.004251282051282051,0.00275025641025641,0.003419487179487179,0.004268717948717948,0.006508717948717948,0.006845128205128204,0.0071635897435897425,0.007171794871794871,0.007551794871794871,0.0007538461538461538,0.0034764102564102555,0.000787179487179487,0.000787179487179487
1785789204.7109375,0.004137948717948718,0.004251282051282051,0.00275025641025641,0.003418974358974359,0.004268717948717948,0.006511794871794871,0.006847179487179486,0.007157435897435897,0.0071702564102564086,0.007551794871794871,0.0007538461538461538,0.003478461538461538,0.000787179487179487,0.0007876923076923076
1785789204.71875,0.004137435897435897,0.004251282051282051,0.00275025641025641,0.0034158974358974355,0.004268717948717948,0.0065102564102564086,0.006848717948717948,0.007156410256410255,0.007169743589743588,0.007551794871794871,0.0007538461538461538,0.0034758974358974353,0.000787179487179487,0.0007892307692307692
1785789204.7265625,0.004136410256410256,0.004251282051282051,0.0027497435897435893,0.0034179487179487175,0.004268717948717948,0.006508717948717948,0.006849743589743588,0.00716051282051282,0.007166666666666666,0.007551794871794871,0.0007538461538461538,0.003474358974358974,0.000787179487179487,0.0007892307692307692
1785789204.734375,0.004137435897435897,0.004251282051282051,0.0027497435897435893,0.003422051282051282,0.004268717948717948,0.0065102564102564086,0.006850769230769231,0.0071594871794871786,0.007167179487179486,0.007551794871794871,0.0007538461538461538,0.0034748717948717943,0.000787179487179487,0.0007825641025641025
1785789204.7421875,0.004136923076923076,0.004251282051282051,0.00275025641025641,0.003423589743589743,0.004268717948717948,0.006511794871794871,0.006850769230769231,0.007159999999999999,0.007169743589743588,0.007551794871794871,0.0007538461538461538,0.0034764102564102555,0.000787179487179487,0.0007866666666666666
1785789204.75,0.004136410256410256,0.004251282051282051,0.0027497435897435893,0.0034210256410256404,0.004268717948717948,0.006511282051282051,0.006849230769230768,0.007162564102564101,0.0071702564102564086,0.007551794871794871,0.0007538461538461538,0.003477435897435897,0.000787179487179487,0.0007984615384615383
1785789204.7578125,0.004137948717948718,0.004251282051282051,0.00275025641025641,0.0034230769230769228,0.004268717948717948,0.006509743589743588,0.006849743589743588,0.007162564102564101,0.007171282051282051,0.007551794871794871,0.0007538461538461538,0.0034779487179487176,0.000787179487179487,0.0007979487179487179
1785789204.765625,0.004138461538461538,0.004251282051282051,0.0027517948717948717,0.0034312820512820506,0.004268717948717948,0.0065082051282051275,0.0068482051282051275,0.007162564102564101,0.007173846153846153,0.007551794871794871,0.0007538461538461538,0.003478461538461538,0.000787179487179487,0.0007958974358974357
1785789204.7734375,0.004137948717948718,0.004251282051282051,0.002749230769230769,0.0034297435897435893,0.004268717948717948,0.006509743589743588,0.006848717948717948,0.007162564102564101,0.007172820512820512,0.007551794871794871,0.0007538461538461538,0.0034779487179487176,0.000787179487179487,0.0007994871794871794
1785789204.78125,0.004137948717948718,0.004251282051282051,0.0027466666666666664,0.00342051282051282,0.004268717948717948,0.006512307692307691,0.006855384615384614,0.007157948717948717,0.007167179487179486,0.007551794871794871,0.0007538461538461538,0.003477435897435897,0.000787179487179487,0.0007923076923076922
1785789204.7890625,0.004138461538461538,0.004251282051282051,0.0027487179487179483,0.003422051282051282,0.004268717948717948,0.006512820512820512,0.006855897435897435,0.007157435897435897,0.0071682051282051275,0.007551794871794871,0.0007538461538461538,0.0034779487179487176,0.000787179487179487,0.0007835897435897435
1785789204.796875,0.004137948717948718,0.004251282051282051,0.0027512820512820505,0.00343025641025641,0.004268717948717948,0.006509230769230768,0.006846666666666666,0.0071635897435897425,0.007174871794871794,0.007551794871794871,0.0007538461538461538,0.0034758974358974353,0.000787179487179487,0.0007923076923076922
1785789204.8046875,0.004138461538461538,0.004251282051282051,0.0027512820512820505,0.0034241025641025638,0.004268717948717948,0.006507692307692306,0.006845641025641025,0.007163076923076922,0.007174871794871794,0.007551794871794871,0.0007538461538461538,0.0034748717948717943,0.000787179487179487,0.0007958974358974357
1785789204.8125,0.004137948717948718,0.004251282051282051,0.00275025641025641,0.0034112820512820505,0.004268717948717948,0.006512820512820512,0.006851282051282051,0.0071569230769230755,0.007169743589743588,0.007551794871794871,0.0007538461538461538,0.003475384615384615,0.000787179487179487,0.0007856410256410254
1785789204.8203125,0.004137435897435897,0.004251282051282051,0.0027517948717948717,0.003412307692307692,0.004268717948717948,0.006513846153846153,0.006849743589743588,0.007156410256410255,0.007167179487179486,0.007551794871794871,0.0007538461538461538,0.0034738461538461533,0.000787179487179487,0.0007851282051282051
1785789204.828125,0.004137948717948718,0.004251282051282051,0.002752307692307692,0.003419487179487179,0.004268717948717948,0.006508717948717948,0.006845641025641025,0.00716102564102564,0.0071702564102564086,0.007551794871794871,0.0007538461538461538,0.003474358974358974,0.000787179487179487,0.0007882051282051281
1785789204.8359375,0.004136923076923076,0.004251282051282051,0.0027512820512820505,0.003419487179487179,0.004268717948717948,0.006509230769230768,0.0068482051282051275,0.00716051282051282,0.007171282051282051,0.007551794871794871,0.0007538461538461538,0.0034769230769230767,0.000787179487179487,0.0007882051282051281
1785789204.84375,0.004135897435897436,0.004251282051282051,0.00275025641025641,0.003416410256410256,0.004268717948717948,0.006512307692307691,0.006851282051282051,0.007158461538461538,0.0071702564102564086,0.007551794871794871,0.0007538461538461538,0.003475384615384615,0.000787179487179487,0.0007882051282051281
1785789204.8515625,0.004137435897435897,0.004251282051282051,0.00275025641025641,0.0034179487179487175,0.004268717948717948,0.0065102564102564086,0.006848717948717948,0.0071615384615384605,0.0071702564102564086,0.007551794871794871,0.0007538461538461538,0.003473333333333333,0.000787179487179487,0.0007897435897435897
1785789204.859375,0.004137948717948718,0.004251282051282051,0.002749230769230769,0.00342051282051282,0.004268717948717948,0.006509743589743588,0.006849230769230768,0.0071615384615384605,0.0071707692307692306,0.007551794871794871,0.0007538461538461538,0.0034769230769230767,0.000787179487179487,0.0007892307692307692
1785789204.8671875,0.004136923076923076,0.004251282051282051,0.002749230769230769,0.003416410256410256,0.004268717948717948,0.006513333333333333,0.006855384615384614,0.0071548717948717935,0.007166666666666666,0.007551794871794871,0.0007538461538461538,0.003479487179487179,0.000787179487179487,0.0007866666666666666
1785789204.875,0.004136410256410256,0.004251282051282051,0.0027512820512820505,0.003418974358974359,0.004268717948717948,0.006512820512820512,0.006852820512820512,0.007158461538461538,0.007167692307692306,0.007551794871794871,0.0007538461538461538,0.0034779487179487176,0.000787179487179487,0.000787179487179487
1785789204.8828125,0.004137948717948718,0.004251282051282051,0.0027507692307692302,0.0034241025641025638,0.004268717948717948,0.0065082051282051275,0.006844615384615384,0.007166666666666666,0.007176410256410255,0.007551794871794871,0.0007538461538461538,0.0034769230769230767,0.000787179487179487,0.0007882051282051281
1785789204.890625,0.004138461538461538,0.004251282051282051,0.0027487179487179483,0.003422564102564102,0.004268717948717948,0.006508717948717948,0.006847179487179486,0.007165128205128204,0.007177435897435896,0.007551794871794871,0.0007538461538461538,0.0034779487179487176,0.000787179487179487,0.0007897435897435897
1785789204.8984375,0.004137435897435897,0.004251282051282051,0.0027497435897435893,0.0034179487179487175,0.004268717948717948,0.006513846153846153,0.006855897435897435,0.0071548717948717935,0.007167692307692306,0.007551794871794871,0.0007538461538461538,0.0034764102564102555,0.000787179487179487,0.0007897435897435897
1785789204.90625,0.004138461538461538,0.004251282051282051,0.0027512820512820505,0.003422564102564102,0.004268717948717948,0.006513846153846153,0.006853333333333333,0.0071569230769230755,0.0071682051282051275,0.007551794871794871,0.0007538461538461538,0.003474358974358974,0.000787179487179487,0.0007887179487179486
1785789204.9140625,0.004138974358974358,0.004251282051282051,0.0027517948717948717,0.003427692307692307,0.004268717948717948,0.006507692307692306,0.006844615384615384,0.0071661538461538455,0.0071769230769230755,0.007551794871794871,0.0007538461538461538,0.0034764102564102555,0.000787179487179487,0.0007969230769230769
1785789204.921875,0.004138461538461538,0.004251282051282051,0.0027507692307692302,0.003422564102564102,0.004268717948717948,0.006507692307692306,0.006845128205128204,0.007164615384615384,0.007177435897435896,0.007551794871794871,0.0007538461538461538,0.003478461538461538,0.000787179487179487,0.000803076923076923
1785789204.9296875,0.004136923076923076,0.004251282051282051,0.002749230769230769,0.0034169230769230765,0.004268717948717948,0.006513846153846153,0.006852307692307691,0.007156410256410255,0.007169743589743588,0.007551794871794871,0.0007538461538461538,0.003475384615384615,0.000787179487179487,0.0007938461538461538
1785789204.9375,0.004136410256410256,0.004251282051282051,0.00275025641025641,0.0034179487179487175,0.004268717948717948,0.006513846153846153,0.006854871794871794,0.007157948717948717,0.007164615384615384,0.007551794871794871,0.0007538461538461538,0.003475384615384615,0.000787179487179487,0.0007846153846153845
1785789204.9453125,0.004138974358974358,0.004251282051282051,0.002752307692307692,0.003421538461538461,0.004268717948717948,0.0065102564102564086,0.006849230769230768,0.007162051282051281,0.0071682051282051275,0.007551794871794871,0.0007538461538461538,0.0034758974358974353,0.000787179487179487,0.000787179487179487
1785789204.953125,0.0041394871794871784,0.004251282051282051,0.002752307692307692,0.003422051282051282,0.004268717948717948,0.006509230769230768,0.006846666666666666,0.00716051282051282,0.007172307692307691,0.007551794871794871,0.0007538461538461538,0.003475384615384615,0.000787179487179487,0.0007882051282051281
1785789204.9609375,0.004138461538461538,0.004251282051282051,0.0027497435897435893,0.0034199999999999994,0.004268717948717948,0.0065107692307692306,0.006849230769230768,0.007162051282051281,0.007173333333333333,0.007551794871794871,0.0007538461538461538,0.003475384615384615,0.000787179487179487,0.0007851282051282051
1785789204.96875,0.004137435897435897,0.004251282051282051,0.0027497435897435893,0.003414871794871794,0.004268717948717948,0.006511794871794871,0.006851794871794871,0.00716102564102564,0.0071702564102564086,0.007551794871794871,0.0007538461538461538,0.0034748717948717943,0.000787179487179487,0.000786153846153846
1785789204.9765625,0.004136923076923076,0.004251282051282051,0.00275025641025641,0.003414871794871794,0.004268717948717948,0.006511794871794871,0.006851794871794871,0.0071569230769230755,0.007167692307692306,0.007551794871794871,0.0007538461538461538,0.003475384615384615,0.000787179487179487,0.0007866666666666666
1785789204.984375,0.004136410256410256,0.004251282051282051,0.00275025641025641,0.0034174358974358968,0.004268717948717948,0.0065102564102564086,0.006851282051282051,0.007158974358974358,0.007169743589743588,0.007551794871794871,0.0007538461538461538,0.003478974358974358,0.000787179487179487,0.0007876923076923076
1785789204.9921875,0.004136410256410256,0.004251282051282051,0.00275025641025641,0.003414871794871794,0.004268717948717948,0.006508717948717948,0.006852307692307691,0.0071615384615384605,0.0071702564102564086,0.007551794871794871,0.0007538461538461538,0.0034799999999999996,0.000787179487179487,0.0007882051282051281
1785789205.0,0.004136410256410256,0.004251282051282051,0.00275025641025641,0.003416410256410256,0.004268717948717948,0.0065102564102564086,0.006852820512820512,0.007158974358974358,0.007168717948717948,0.007551794871794871,0.0007538461538461538,0.003475384615384615,0.000787179487179487,0.0007866666666666666
1785789205.0078125,0.004136923076923076,0.004251282051282051,0.0027497435897435893,0.0034230769230769228,0.004268717948717948,0.0065107692307692306,0.006851794871794871,0.00716051282051282,0.007171794871794871,0.007551794871794871,0.0007538461538461538,0.0034758974358974353,0.000787179487179487,0.0007892307692307692
1785789205.015625,0.004138461538461538,0.004251282051282051,0.0027487179487179483,0.0034230769230769228,0.004268717948717948,0.006509230769230768,0.006850256410256409,0.007164615384615384,0.007173846153846153,0.007551794871794871,0.0007538461538461538,0.0034769230769230767,0.000787179487179487,0.0007897435897435897
1785789205.0234375,0.004137948717948718,0.004251282051282051,0.002749230769230769,0.0034199999999999994,0.004268717948717948,0.006509743589743588,0.006851282051282051,0.007164102564102564,0.007173846153846153,0.007551794871794871,0.0007538461538461538,0.0034748717948717943,0.000787179487179487,0.0007892307692307692
1785789205.03125,0.004136923076923076,0.004251282051282051,0.00275025641025641,0.003422051282051282,0.004268717948717948,0.0065102564102564086,0.006851794871794871,0.0071615384615384605,0.007175384615384614,0.007551794871794871,0.0007538461538461538,0.0034748717948717943,0.000787179487179487,0.0007938461538461538
1785789205.0390625,0.004137948717948718,0.004251282051282051,0.00275025641025641,0.0034241025641025638,0.004268717948717948,0.006509743589743588,0.006849743589743588,0.0071635897435897425,0.007174871794871794,0.007551794871794871,0.0007538461538461538,0.0034769230769230767,0.000787179487179487,0.0007964102564102563
1785789205.046875,0.004137948717948718,0.004251282051282051,0.0027497435897435893,0.00342051282051282,0.004268717948717948,0.006511794871794871,0.006851282051282051,0.0071635897435897425,0.0071702564102564086,0.007551794871794871,0.0007538461538461538,0.0034758974358974353,0.000787179487179487,0.0007897435897435897
1785789205.0546875,0.004137435897435897,0.004251282051282051,0.00275025641025641,0.0034184615384615378,0.004268717948717948,0.006512820512820512,0.006852820512820512,0.007158974358974358,0.007168717948717948,0.007551794871794871,0.0007538461538461538,0.0034728205128205123,0.000787179487179487,0.000786153846153846
1785789205.0625,0.004138461538461538,0.004251282051282051,0.0027507692307692302,0.003423589743589743,0.004268717948717948,0.006508717948717948,0.006847692307692306,0.007159999999999999,0.007173846153846153,0.007551794871794871,0.0007538461538461538,0.0034758974358974353,0.000787179487179487,0.0007964102564102563
1785789205.0703125,0.0041394871794871784,0.004251282051282051,0.0027512820512820505,0.003421538461538461,0.004268717948717948,0.006507692307692306,0.0068461538461538456,0.0071635897435897425,0.007172820512820512,0.007551794871794871,0.0007538461538461538,0.0034799999999999996,0.000787179487179487,0.0007999999999999998
1785789205.078125,0.004137435897435897,0.004251282051282051,0.0027507692307692302,0.003413846153846153,0.004268717948717948,0.006512820512820512,0.006853846153846153,0.007158461538461538,0.007164615384615384,0.007551794871794871,0.0007538461538461538,0.003477435897435897,0.000787179487179487,0.0007887179487179486
1785789205.0859375,0.004136410256410256,0.004251282051282051,0.00275025641025641,0.003413846153846153,0.004268717948717948,0.006513846153846153,0.006856410256410255,0.007153333333333333,0.007162051282051281,0.007551794871794871,0.0007538461538461538,0.0034738461538461533,0.000787179487179487,0.0007835897435897435
1785789205.09375,0.004137948717948718,0.004251282051282051,0.002752307692307692,0.0034184615384615378,0.004268717948717948,0.0065102564102564086,0.006847692307692306,0.0071594871794871786,0.007169230769230768,0.007551794871794871,0.0007538461538461538,0.0034758974358974353,0.000787179487179487,0.0007866666666666666
1785789205.1015625,0.004137948717948718,0.004251282051282051,0.0027517948717948717,0.0034158974358974355,0.004268717948717948,0.006509743589743588,0.006846666666666666,0.007162051282051281,0.007171282051282051,0.007551794871794871,0.0007538461538461538,0.0034769230769230767,0.000787179487179487,0.000786153846153846
1785789205.109375,0.004136410256410256,0.004251282051282051,0.0027497435897435893,0.0034179487179487175,0.004268717948717948,0.0065107692307692306,0.006848717948717948,0.0071615384615384605,0.007171282051282051,0.007551794871794871,0.0007538461538461538,0.0034758974358974353,0.000787179487179487,0.0007866666666666666
1785789205.1171875,0.004136923076923076,0.004251282051282051,0.00275025641025641,0.0034199999999999994,0.004268717948717948,0.006509743589743588,0.0068461538461538456,0.007164615384615384,0.007176410256410255,0.007551794871794871,0.0007538461538461538,0.0034748717948717943,0.000787179487179487,0.0007917948717948717
1785789205.125,0.004137435897435897,0.004251282051282051,0.0027512820512820505,0.003414871794871794,0.004268717948717948,0.0065102564102564086,0.006849230769230768,0.007165128205128204,0.007173846153846153,0.007551794871794871,0.0007538461538461538,0.003474358974358974,0.000787179487179487,0.0007907692307692306
1785789205.1328125,0.004136923076923076,0.004251282051282051,0.00275025641025641,0.003413846153846153,0.004268717948717948,0.006511794871794871,0.006853333333333333,0.007158974358974358,0.0071661538461538455,0.007551794871794871,0.0007538461538461538,0.0034769230769230767,0.000787179487179487,0.0007882051282051281
1785789205.140625,0.004137435897435897,0.004251282051282051,0.00275025641025641,0.003418974358974359,0.004268717948717948,0.006509743589743588,0.006850256410256409,0.00716102564102564,0.007167179487179486,0.007551794871794871,0.0007538461538461538,0.003479487179487179,0.000787179487179487,0.0007902564102564101
1785789205.1484375,0.004137948717948718,0.004251282051282051,0.00275025641025641,0.003416410256410256,0.004268717948717948,0.0065082051282051275,0.0068482051282051275,0.007162564102564101,0.0071702564102564086,0.007551794871794871,0.0007538461538461538,0.0034769230769230767,0.000787179487179487,0.0007876923076923076
1785789205.15625,0.004138461538461538,0.004251282051282051,0.002749230769230769,0.003416410256410256,0.004268717948717948,0.006509230769230768,0.006850769230769231,0.0071594871794871786,0.007171794871794871,0.007551794871794871,0.0007538461538461538,0.0034748717948717943,0.000787179487179487,0.0007882051282051281
1785789205.1640625,0.004137948717948718,0.004251282051282051,0.002749230769230769,0.0034210256410256404,0.004268717948717948,0.006509230769230768,0.006848717948717948,0.00716051282051282,0.007172820512820512,0.007551794871794871,0.0007538461538461538,0.003474358974358974,0.000787179487179487,0.0007953846153846153
1785789205.171875,0.004137948717948718,0.004251282051282051,0.0027512820512820505,0.0034199999999999994,0.004268717948717948,0.006506666666666666,0.006845641025641025,0.00716051282051282,0.0071702564102564086,0.007551794871794871,0.0007538461538461538,0.003474358974358974,0.000787179487179487,0.0007948717948717947
1785789205.1796875,0.00414,0.004251282051282051,0.0027528205128205126,0.0034169230769230765,0.004268717948717948,0.006507692307692306,0.006845641025641025,0.007158461538461538,0.0071682051282051275,0.007551794871794871,0.0007538461538461538,0.0034758974358974353,0.000787179487179487,0.0007948717948717947
1785789205.1875,0.00414,0.004251282051282051,0.002752307692307692,0.0034179487179487175,0.004268717948717948,0.0065107692307692306,0.006848717948717948,0.007157948717948717,0.007169743589743588,0.007551794871794871,0.0007538461538461538,0.0034769230769230767,0.000787179487179487,0.0007979487179487179
1785789205.1953125,0.004137435897435897,0.004251282051282051,0.002749230769230769,0.0034199999999999994,0.004268717948717948,0.0065082051282051275,0.006849743589743588,0.007157948717948717,0.007169230769230768,0.007551794871794871,0.0007538461538461538,0.0034758974358974353,0.000787179487179487,0.0007923076923076922
1785789205.203125,0.004137435897435897,0.004251282051282051,0.00275025641025641,0.0034179487179487175,0.004268717948717948,0.006507692307692306,0.006850256410256409,0.007158461538461538,0.007167179487179486,0.007551794871794871,0.0007538461538461538,0.0034764102564102555,0.000787179487179487,0.0007856410256410254
1785789205.2109375,0.0041394871794871784,0.004251282051282051,0.0027538461538461536,0.003419487179487179,0.004268717948717948,0.006509743589743588,0.006850769230769231,0.00716051282051282,0.0071682051282051275,0.007551794871794871,0.0007538461538461538,0.0034764102564102555,0.000787179487179487,0.0007887179487179486
1785789205.21875,0.0041394871794871784,0.004251282051282051,0.002752307692307692,0.00342051282051282,0.004268717948717948,0.006508717948717948,0.006847179487179486,0.00716051282051282,0.007169230769230768,0.007551794871794871,0.0007538461538461538,0.0034764102564102555,0.000787179487179487,0.0007917948717948717
1785789205.2265625,0.004137948717948718,0.004251282051282051,0.002749230769230769,0.0034174358974358968,0.004268717948717948,0.006507692307692306,0.006846666666666666,0.007159999999999999,0.007168717948717948,0.007551794871794871,0.0007538461538461538,0.003477435897435897,0.000787179487179487,0.000786153846153846
1785789205.234375,0.004137435897435897,0.004251282051282051,0.00275025641025641,0.003413846153846153,0.004268717948717948,0.0065102564102564086,0.006851282051282051,0.0071569230769230755,0.007166666666666666,0.007551794871794871,0.0007538461538461538,0.0034764102564102555,0.000787179487179487,0.0007846153846153845
1785789205.2421875,0.004137948717948718,0.004251282051282051,0.0027512820512820505,0.0034158974358974355,0.004268717948717948,0.0065107692307692306,0.006849743589743588,0.0071569230769230755,0.007166666666666666,0.007551794871794871,0.0007538461538461538,0.003475384615384615,0.000787179487179487,0.0007882051282051281
1785789205.25,0.004138461538461538,0.004251282051282051,0.0027507692307692302,0.0034153846153846153,0.004268717948717948,0.006509743589743588,0.006845641025641025,0.007162051282051281,0.0071707692307692306,0.007551794871794871,0.0007538461538461538,0.0034748717948717943,0.000787179487179487,0.0007876923076923076
1785789205.2578125,0.004138461538461538,0.004251282051282051,0.0027512820512820505,0.003413846153846153,0.004268717948717948,0.006509743589743588,0.006848717948717948,0.0071635897435897425,0.0071707692307692306,0.007551794871794871,0.0007538461538461538,0.0034748717948717943,0.000787179487179487,0.0007866666666666666
1785789205.265625,0.004137948717948718,0.004251282051282051,0.0027507692307692302,0.0034174358974358968,0.004268717948717948,0.006508717948717948,0.006849743589743588,0.007158461538461538,0.0071682051282051275,0.007551794871794871,0.0007538461538461538,0.0034748717948717943,0.000787179487179487,0.0007953846153846153
1785789205.2734375,0.004136923076923076,0.004251282051282051,0.0027497435897435893,0.003422564102564102,0.004268717948717948,0.0065061538461538455,0.006845641025641025,0.007162564102564101,0.007172820512820512,0.007551794871794871,0.0007538461538461538,0.003474358974358974,0.000787179487179487,0.0007989743589743588
1785789205.28125,0.004138461538461538,0.004251282051282051,0.0027507692307692302,0.003418974358974359,0.004268717948717948,0.006505641025641025,0.006845641025641025,0.007165641025641025,0.007174871794871794,0.007551794871794871,0.0007538461538461538,0.0034758974358974353,0.000787179487179487,0.0007902564102564101
1785789205.2890625,0.004138461538461538,0.004251282051282051,0.0027507692307692302,0.003413333333333333,0.004268717948717948,0.0065082051282051275,0.006847692307692306,0.00716051282051282,0.0071702564102564086,0.007551794871794871,0.0007538461538461538,0.003477435897435897,0.000787179487179487,0.0007876923076923076
1785789205.296875,0.004136923076923076,0.004251282051282051,0.002749230769230769,0.003413846153846153,0.004268717948717948,0.006509230769230768,0.006848717948717948,0.007156410256410255,0.007167692307692306,0.007551794871794871,0.0007538461538461538,0.0034764102564102555,0.000787179487179487,0.0007917948717948717
1785789205.3046875,0.004137435897435897,0.004251282051282051,0.00275025641025641,0.003416410256410256,0.004268717948717948,0.0065082051282051275,0.006849230769230768,0.007155384615384614,0.007166666666666666,0.007551794871794871,0.0007538461538461538,0.003474358974358974,0.000787179487179487,0.0007907692307692306
1785789205.3125,0.004138461538461538,0.004251282051282051,0.002753333333333333,0.0034199999999999994,0.004268717948717948,0.006508717948717948,0.006847692307692306,0.007158461538461538,0.007166666666666666,0.007551794871794871,0.0007538461538461538,0.003474358974358974,0.000787179487179487,0.0007902564102564101
1785789205.3203125,0.004138461538461538,0.004251282051282051,0.0027528205128205126,0.003419487179487179,0.004268717948717948,0.006508717948717948,0.006846666666666666,0.00716051282051282,0.0071661538461538455,0.007551794871794871,0.0007538461538461538,0.003475384615384615,0.000787179487179487,0.0007912820512820511
1785789205.328125,0.004137435897435897,0.004251282051282051,0.00275025641025641,0.003414871794871794,0.004268717948717948,0.006508717948717948,0.006850256410256409,0.007157435897435897,0.007164615384615384,0.007551794871794871,0.0007538461538461538,0.003477435897435897,0.000787179487179487,0.0007882051282051281
1785789205.3359375,0.004136923076923076,0.004251282051282051,0.002749230769230769,0.0034117948717948716,0.004268717948717948,0.006511282051282051,0.006851794871794871,0.007153846153846153,0.0071661538461538455,0.007551794871794871,0.0007538461538461538,0.003477435897435897,0.000787179487179487,0.0007876923076923076
1785789205.34375,0.004137435897435897,0.004251282051282051,0.0027497435897435893,0.0034184615384615378,0.004268717948717948,0.0065102564102564086,0.006847692307692306,0.007157435897435897,0.007169743589743588,0.007551794871794871,0.0007538461538461538,0.003475384615384615,0.000787179487179487,0.0007882051282051281
1785789205.3515625,0.004138461538461538,0.004251282051282051,0.00275025641025641,0.0034241025641025638,0.004268717948717948,0.006507692307692306,0.0068415384615384605,0.0071615384615384605,0.007172820512820512,0.007551794871794871,0.0007538461538461538,0.003475384615384615,0.000787179487179487,0.0007887179487179486
1785789205.359375,0.004138461538461538,0.004251282051282051,0.0027507692307692302,0.0034184615384615378,0.004268717948717948,0.006507179487179486,0.006843076923076922,0.007162564102564101,0.007171794871794871,0.007551794871794871,0.0007538461538461538,0.003477435897435897,0.000787179487179487,0.0007876923076923076
1785789205.3671875,0.004137948717948718,0.004251282051282051,0.00275025641025641,0.0034117948717948716,0.004268717948717948,0.006508717948717948,0.006851794871794871,0.007162051282051281,0.007167692307692306,0.007551794871794871,0.0007538461538461538,0.0034769230769230767,0.000787179487179487,0.000786153846153846
1785789205.375,0.004137948717948718,0.004251282051282051,0.0027497435897435893,0.0034128205128205126,0.004268717948717948,0.006508717948717948,0.006853333333333333,0.007159999999999999,0.007165128205128204,0.007551794871794871,0.0007538461538461538,0.0034758974358974353,0.000787179487179487,0.000787179487179487
1785789205.3828125,0.004137948717948718,0.004251282051282051,0.00275025641025641,0.003413333333333333,0.004268717948717948,0.0065082051282051275,0.006847692307692306,0.007159999999999999,0.007167179487179486,0.007551794871794871,0.0007538461538461538,0.0034738461538461533,0.000787179487179487,0.0007851282051282051
1785789205.390625,0.004137948717948718,0.004251282051282051,0.00275025641025641,0.0034158974358974355,0.004268717948717948,0.0065082051282051275,0.006845641025641025,0.007164102564102564,0.007171282051282051,0.007551794871794871,0.0007538461538461538,0.0034738461538461533,0.000787179487179487,0.0007887179487179486
1785789205.3984375,0.004138461538461538,0.004251282051282051,0.00275025641025641,0.0034179487179487175,0.004268717948717948,0.006508717948717948,0.006846666666666666,0.007162564102564101,0.0071702564102564086,0.007551794871794871,0.0007538461538461538,0.003479487179487179,0.000787179487179487,0.0007933333333333332
1785789205.40625,0.004137435897435897,0.004251282051282051,0.00275025641025641,0.003418974358974359,0.004268717948717948,0.006507692307692306,0.0068461538461538456,0.007158461538461538,0.007168717948717948,0.007551794871794871,0.0007538461538461538,0.0034805128205128203,0.000787179487179487,0.0007928205128205127
1785789205.4140625,0.004137435897435897,0.004251282051282051,0.0027497435897435893,0.0034210256410256404,0.004268717948717948,0.006504615384615384,0.0068461538461538456,0.00716102564102564,0.007171282051282051,0.007551794871794871,0.0007538461538461538,0.003474358974358974,0.000787179487179487,0.0007938461538461538
1785789205.421875,0.00414,0.004251282051282051,0.0027517948717948717,0.0034210256410256404,0.004268717948717948,0.006507179487179486,0.0068461538461538456,0.00716051282051282,0.0071707692307692306,0.007551794871794871,0.0007538461538461538,0.003474358974358974,0.000787179487179487,0.0007928205128205127
1785789205.4296875,0.00414,0.004251282051282051,0.0027528205128205126,0.0034158974358974355,0.004268717948717948,0.006509743589743588,0.006844102564102564,0.007156410256410255,0.007167692307692306,0.007551794871794871,0.0007538461538461538,0.003478461538461538,0.000787179487179487,0.0007923076923076922
1785789205.4375,0.004136923076923076,0.004251282051282051,0.002749230769230769,0.003413333333333333,0.004268717948717948,0.006507179487179486,0.006844615384615384,0.007155897435897435,0.007167179487179486,0.007551794871794871,0.0007538461538461538,0.0034758974358974353,0.000787179487179487,0.0007928205128205127
1785789205.4453125,0.004136410256410256,0.004251282051282051,0.002748205128205128,0.003418974358974359,0.004268717948717948,0.0065061538461538455,0.0068461538461538456,0.0071569230769230755,0.007169743589743588,0.007551794871794871,0.0007538461538461538,0.0034723076923076916,0.000787179487179487,0.0007912820512820511
1785789205.453125,0.004137435897435897,0.004251282051282051,0.0027517948717948717,0.00342051282051282,0.004268717948717948,0.006509230769230768,0.006846666666666666,0.0071569230769230755,0.007166666666666666,0.007551794871794871,0.0007538461538461538,0.003475384615384615,0.000787179487179487,0.0007882051282051281
1785789205.4609375,0.004137435897435897,0.004251282051282051,0.0027507692307692302,0.0034184615384615378,0.004268717948717948,0.006508717948717948,0.006846666666666666,0.007158461538461538,0.007164102564102564,0.007551794871794871,0.0007538461538461538,0.0034769230769230767,0.000787179487179487,0.0007907692307692306
1785789205.46875,0.004136410256410256,0.004251282051282051,0.002749230769230769,0.0034174358974358968,0.004268717948717948,0.006505128205128204,0.0068482051282051275,0.007155384615384614,0.007165641025641025,0.007551794871794871,0.0007538461538461538,0.0034758974358974353,0.000787179487179487,0.0007907692307692306
1785789205.4765625,0.004137948717948718,0.004251282051282051,0.0027528205128205126,0.003421538461538461,0.004268717948717948,0.006504102564102564,0.006847179487179486,0.007155384615384614,0.007169230769230768,0.007551794871794871,0.0007538461538461538,0.0034758974358974353,0.000787179487179487,0.0007897435897435897
1785789205.484375,0.004138974358974358,0.004251282051282051,0.002753333333333333,0.0034261538461538457,0.004268717948717948,0.006503589743589743,0.006844102564102564,0.007162051282051281,0.007172820512820512,0.007551794871794871,0.0007538461538461538,0.0034764102564102555,0.000787179487179487,0.0007994871794871794
1785789205.4921875,0.004136923076923076,0.004251282051282051,0.0027497435897435893,0.0034199999999999994,0.004268717948717948,0.006505128205128204,0.006845641025641025,0.007162051282051281,0.007167692307692306,0.007551794871794871,0.0007538461538461538,0.0034799999999999996,0.000787179487179487,0.0007964102564102563
1785789205.5,0.004135897435897436,0.004251282051282051,0.0027497435897435893,0.0034117948717948716,0.004268717948717948,0.006509743589743588,0.006849743589743588,0.007154358974358973,0.00716051282051282,0.007551794871794871,0.0007538461538461538,0.0034769230769230767,0.000787179487179487,0.0007830769230769229
1785789205.5078125,0.004138461538461538,0.004251282051282051,0.0027507692307692302,0.0034174358974358968,0.004268717948717948,0.0065082051282051275,0.006846666666666666,0.007157435897435897,0.007164615384615384,0.007551794871794871,0.0007538461538461538,0.0034682051282051277,0.000787179487179487,0.0007830769230769229
1785789205.515625,0.004138974358974358,0.004251282051282051,0.0027487179487179483,0.003419487179487179,0.004268717948717948,0.006505128205128204,0.006842564102564101,0.0071615384615384605,0.007172307692307691,0.007551794871794871,0.0007538461538461538,0.0034692307692307687,0.000787179487179487,0.000786153846153846
1785789205.5234375,0.004137948717948718,0.004251282051282051,0.00275025641025641,0.0034153846153846153,0.004268717948717948,0.006507179487179486,0.006845128205128204,0.0071569230769230755,0.007171282051282051,0.007551794871794871,0.0007538461538461538,0.0034764102564102555,0.000787179487179487,0.0007846153846153845
1785789205.53125,0.0041394871794871784,0.004251282051282051,0.002753333333333333,0.003416410256410256,0.004268717948717948,0.006507692307692306,0.0068435897435897425,0.0071569230769230755,0.007169230769230768,0.007551794871794871,0.0007538461538461538,0.003475384615384615,0.000787179487179487,0.0007882051282051281
1785789205.5390625,0.0041394871794871784,0.004251282051282051,0.0027512820512820505,0.003414358974358974,0.004268717948717948,0.006504615384615384,0.00684102564102564,0.00716102564102564,0.007168717948717948,0.007551794871794871,0.0007538461538461538,0.0034723076923076916,0.000787179487179487,0.0007912820512820511
1785789205.546875,0.004135384615384615,0.004251282051282051,0.002748205128205128,0.0034071794871794866,0.004268717948717948,0.006507179487179486,0.006848717948717948,0.007154358974358973,0.00716051282051282,0.007551794871794871,0.0007538461538461538,0.003477435897435897,0.000787179487179487,0.000786153846153846
1785789205.5546875,0.004135897435897436,0.004251282051282051,0.00275025641025641,0.0034153846153846153,0.004268717948717948,0.0065107692307692306,0.006853333333333333,0.0071507692307692305,0.0071594871794871786,0.007551794871794871,0.0007538461538461538,0.0034810256410256406,0.000787179487179487,0.0007866666666666666
1785789205.5625,0.00414,0.004251282051282051,0.0027512820512820505,0.0034261538461538457,0.004268717948717948,0.006506666666666666,0.006844615384615384,0.0071594871794871786,0.007168717948717948,0.007551794871794871,0.0007538461538461538,0.0034758974358974353,0.000787179487179487,0.0007902564102564101
1785789205.5703125,0.004138974358974358,0.004251282051282051,0.002749230769230769,0.003418974358974359,0.004268717948717948,0.006503589743589743,0.00684051282051282,0.007162051282051281,0.007171794871794871,0.007551794871794871,0.0007538461538461538,0.003473333333333333,0.000787179487179487,0.0007892307692307692
1785789205.578125,0.004135897435897436,0.004251282051282051,0.00275025641025641,0.0034169230769230765,0.004268717948717948,0.0065061538461538455,0.006844615384615384,0.007157948717948717,0.0071702564102564086,0.007551794871794871,0.0007538461538461538,0.0034769230769230767,0.000787179487179487,0.0007876923076923076
1785789205.5859375,0.004136923076923076,0.004251282051282051,0.0027507692307692302,0.003423589743589743,0.004268717948717948,0.006507692307692306,0.006844615384615384,0.007157948717948717,0.0071682051282051275,0.007551794871794871,0.0007538461538461538,0.003477435897435897,0.000787179487179487,0.0007887179487179486
1785789205.59375,0.004137948717948718,0.004251282051282051,0.002749230769230769,0.0034210256410256404,0.004268717948717948,0.006507179487179486,0.006844615384615384,0.007157435897435897,0.007163076923076922,0.007551794871794871,0.0007538461538461538,0.003474358974358974,0.000787179487179487,0.0007892307692307692
1785789205.6015625,0.004137435897435897,0.004251282051282051,0.00275025641025641,0.003416410256410256,0.004268717948717948,0.006506666666666666,0.006846666666666666,0.0071548717948717935,0.007163076923076922,0.007551794871794871,0.0007538461538461538,0.0034748717948717943,0.000787179487179487,0.0007882051282051281
1785789205.609375,0.004137948717948718,0.004251282051282051,0.002752307692307692,0.003419487179487179,0.004268717948717948,0.006505128205128204,0.006845128205128204,0.007157435897435897,0.0071707692307692306,0.007551794871794871,0.0007538461538461538,0.0034764102564102555,0.000787179487179487,0.0007882051282051281
1785789205.6171875,0.004137948717948718,0.004251282051282051,0.0027512820512820505,0.003416410256410256,0.004268717948717948,0.006504102564102564,0.006844102564102564,0.0071594871794871786,0.007169230769230768,0.007551794871794871,0.0007538461538461538,0.0034748717948717943,0.000787179487179487,0.0007897435897435897
1785789205.625,0.004138461538461538,0.004251282051282051,0.0027497435897435893,0.003413846153846153,0.004268717948717948,0.006505128205128204,0.006845128205128204,0.0071594871794871786,0.007167179487179486,0.007551794871794871,0.0007538461538461538,0.003474358974358974,0.000787179487179487,0.0007876923076923076
1785789205.6328125,0.004138461538461538,0.004251282051282051,0.00275025641025641,0.003414358974358974,0.004268717948717948,0.006506666666666666,0.006844102564102564,0.007157435897435897,0.007169230769230768,0.007551794871794871,0.0007538461538461538,0.003473333333333333,0.000787179487179487,0.0007846153846153845
1785789205.640625,0.004137948717948718,0.004251282051282051,0.00275025641025641,0.0034128205128205126,0.004268717948717948,0.006507692307692306,0.006844615384615384,0.007155384615384614,0.007164102564102564,0.007551794871794871,0.0007538461538461538,0.003473333333333333,0.000787179487179487,0.000787179487179487
1785789205.6484375,0.004137948717948718,0.004251282051282051,0.00275025641025641,0.0034112820512820505,0.004268717948717948,0.006508717948717948,0.006846666666666666,0.0071548717948717935,0.007162564102564101,0.007551794871794871,0.0007538461538461538,0.003474358974358974,0.000787179487179487,0.0007856410256410254
1785789205.65625,0.004137435897435897,0.004251282051282051,0.0027512820512820505,0.003416410256410256,0.004268717948717948,0.006507692307692306,0.006844102564102564,0.007159999999999999,0.0071702564102564086,0.007551794871794871,0.0007538461538461538,0.0034738461538461533,0.000787179487179487,0.0007835897435897435
1785789205.6640625,0.004136923076923076,0.004251282051282051,0.0027507692307692302,0.003418974358974359,0.004268717948717948,0.006504615384615384,0.0068415384615384605,0.007164102564102564,0.007172307692307691,0.007551794871794871,0.0007538461538461538,0.0034748717948717943,0.000787179487179487,0.0007943589743589743
1785789205.671875,0.004137948717948718,0.004251282051282051,0.0027497435897435893,0.0034184615384615378,0.004268717948717948,0.006505128205128204,0.006845128205128204,0.00716102564102564,0.0071682051282051275,0.007551794871794871,0.0007538461538461538,0.0034769230769230767,0.000787179487179487,0.0008015384615384614
1785789205.6796875,0.004138974358974358,0.004251282051282051,0.00275025641025641,0.00342051282051282,0.004268717948717948,0.0065061538461538455,0.006847692307692306,0.0071594871794871786,0.0071682051282051275,0.007551794871794871,0.0007538461538461538,0.0034758974358974353,0.000787179487179487,0.0007923076923076922
1785789205.6875,0.004137948717948718,0.004251282051282051,0.00275025641025641,0.0034199999999999994,0.004268717948717948,0.006505128205128204,0.0068461538461538456,0.007158974358974358,0.007169743589743588,0.007551794871794871,0.0007538461538461538,0.0034748717948717943,0.000787179487179487,0.0007846153846153845
1785789205.6953125,0.004137435897435897,0.004251282051282051,0.0027497435897435893,0.0034184615384615378,0.004268717948717948,0.006505641025641025,0.006845641025641025,0.007157948717948717,0.007169743589743588,0.007551794871794871,0.0007538461538461538,0.003475384615384615,0.000787179487179487,0.0007923076923076922
1785789205.703125,0.004138461538461538,0.004251282051282051,0.00275025641025641,0.003414871794871794,0.004268717948717948,0.006506666666666666,0.006847179487179486,0.007156410256410255,0.007168717948717948,0.007551794871794871,0.0007538461538461538,0.0034748717948717943,0.000787179487179487,0.0007923076923076922
1785789205.7109375,0.004138461538461538,0.004251282051282051,0.0027517948717948717,0.0034184615384615378,0.004268717948717948,0.006504615384615384,0.006844615384615384,0.007157435897435897,0.007169743589743588,0.007551794871794871,0.0007538461538461538,0.0034758974358974353,0.000787179487179487,0.0007912820512820511
1785789205.71875,0.004138974358974358,0.004251282051282051,0.0027512820512820505,0.003423589743589743,0.004268717948717948,0.006504102564102564,0.00684051282051282,0.007159999999999999,0.0071702564102564086,0.007551794871794871,0.0007538461538461538,0.003478461538461538,0.000787179487179487,0.0007989743589743588
1785789205.7265625,0.004137948717948718,0.004251282051282051,0.0027487179487179483,0.0034174358974358968,0.004268717948717948,0.0065061538461538455,0.006844615384615384,0.007158461538461538,0.007164615384615384,0.007551794871794871,0.0007538461538461538,0.0034764102564102555,0.000787179487179487,0.0007958974358974357
1785789205.734375,0.004135897435897436,0.004251282051282051,0.0027497435897435893,0.0034071794871794866,0.004268717948717948,0.006508717948717948,0.006852820512820512,0.0071502564102564085,0.007157435897435897,0.007551794871794871,0.0007538461538461538,0.003474358974358974,0.000787179487179487,0.0007846153846153845
1785789205.7421875,0.004136410256410256,0.004251282051282051,0.0027507692307692302,0.0034112820512820505,0.004268717948717948,0.0065082051282051275,0.006849743589743588,0.007151282051282051,0.007162564102564101,0.007551794871794871,0.0007538461538461538,0.0034758974358974353,0.000787179487179487,0.0007851282051282051
1785789205.75,0.004138461538461538,0.004251282051282051,0.00275025641025641,0.003419487179487179,0.004268717948717948,0.006504615384615384,0.006842564102564101,0.007159999999999999,0.007171282051282051,0.007551794871794871,0.0007538461538461538,0.0034758974358974353,0.000787179487179487,0.0007923076923076922
1785789205.7578125,0.004138461538461538,0.004251282051282051,0.0027517948717948717,0.0034169230769230765,0.004268717948717948,0.006504615384615384,0.006845641025641025,0.00716102564102564,0.007167179487179486,0.007551794871794871,0.0007538461538461538,0.0034748717948717943,0.000787179487179487,0.0007876923076923076
1785789205.765625,0.004137435897435897,0.004251282051282051,0.002752307692307692,0.0034128205128205126,0.004268717948717948,0.006506666666666666,0.0068482051282051275,0.007156410256410255,0.00716102564102564,0.007551794871794871,0.0007538461538461538,0.003475384615384615,0.000787179487179487,0.0007846153846153845
1785789205.7734375,0.004137435897435897,0.004251282051282051,0.00275025641025641,0.0034169230769230765,0.004268717948717948,0.0065061538461538455,0.0068435897435897425,0.007159999999999999,0.007167179487179486,0.007551794871794871,0.0007538461538461538,0.003474358974358974,0.000787179487179487,0.000787179487179487
1785789205.78125,0.004138461538461538,0.004251282051282051,0.002749230769230769,0.0034169230769230765,0.004268717948717948,0.006504615384615384,0.00684051282051282,0.007162564102564101,0.007172820512820512,0.007551794871794871,0.0007538461538461538,0.003473333333333333,0.000787179487179487,0.000786153846153846
1785789205.7890625,0.004137948717948718,0.004251282051282051,0.002752307692307692,0.0034117948717948716,0.004268717948717948,0.006507692307692306,0.006844102564102564,0.007155897435897435,0.007165641025641025,0.007551794871794871,0.0007538461538461538,0.0034712820512820507,0.000787179487179487,0.0007866666666666666
1785789205.796875,0.004137948717948718,0.004251282051282051,0.0027517948717948717,0.0034128205128205126,0.004268717948717948,0.006507692307692306,0.006846666666666666,0.007152307692307691,0.00716102564102564,0.007551794871794871,0.0007538461538461538,0.003468717948717948,0.000787179487179487,0.0007897435897435897
1785789205.8046875,0.004138461538461538,0.004251282051282051,0.002749230769230769,0.0034179487179487175,0.004268717948717948,0.006504615384615384,0.006845641025641025,0.007157948717948717,0.0071682051282051275,0.007551794871794871,0.0007538461538461538,0.0034728205128205123,0.000787179487179487,0.0007907692307692306
1785789205.8125,0.004137948717948718,0.004251282051282051,0.002749230769230769,0.0034184615384615378,0.004268717948717948,0.006502564102564101,0.006844615384615384,0.00716102564102564,0.007172820512820512,0.007551794871794871,0.0007538461538461538,0.0034769230769230767,0.000787179487179487,0.0007856410256410254
1785789205.8203125,0.004135897435897436,0.004251282051282051,0.0027507692307692302,0.003414871794871794,0.004268717948717948,0.0065061538461538455,0.0068461538461538456,0.007156410256410255,0.007165641025641025,0.007551794871794871,0.0007538461538461538,0.003475384615384615,0.000787179487179487,0.0007851282051282051
1785789205.828125,0.004136410256410256,0.004251282051282051,0.0027507692307692302,0.003416410256410256,0.004268717948717948,0.0065082051282051275,0.006846666666666666,0.007155897435897435,0.00716051282051282,0.007551794871794871,0.0007538461538461538,0.003475384615384615,0.000787179487179487,0.0007907692307692306
1785789205.8359375,0.004137435897435897,0.004251282051282051,0.002749230769230769,0.0034179487179487175,0.004268717948717948,0.0065061538461538455,0.006846666666666666,0.007158461538461538,0.0071661538461538455,0.007551794871794871,0.0007538461538461538,0.003475384615384615,0.000787179487179487,0.000787179487179487
1785789205.84375,0.004137948717948718,0.004251282051282051,0.00275025641025641,0.003422051282051282,0.004268717948717948,0.006503589743589743,0.006844102564102564,0.0071615384615384605,0.007172820512820512,0.007551794871794871,0.0007538461538461538,0.0034748717948717943,0.000787179487179487,0.0007912820512820511
1785789205.8515625,0.004138461538461538,0.004251282051282051,0.0027512820512820505,0.003424615384615384,0.004268717948717948,0.006502564102564101,0.00684102564102564,0.007162564102564101,0.007171794871794871,0.007551794871794871,0.0007538461538461538,0.0034779487179487176,0.000787179487179487,0.0008066666666666666
1785789205.859375,0.004138461538461538,0.004251282051282051,0.0027507692307692302,0.0034251282051282043,0.004268717948717948,0.006502564102564101,0.006842051282051281,0.007162564102564101,0.0071707692307692306,0.007551794871794871,0.0007538461538461538,0.003478974358974358,0.000787179487179487,0.0008061538461538461
1785789205.8671875,0.004138461538461538,0.004251282051282051,0.0027512820512820505,0.0034210256410256404,0.004268717948717948,0.006503589743589743,0.006844615384615384,0.007159999999999999,0.007169230769230768,0.007551794871794871,0.0007538461538461538,0.003474358974358974,0.000787179487179487,0.0007923076923076922
1785789205.875,0.004137948717948718,0.004251282051282051,0.00275025641025641,0.0034179487179487175,0.004268717948717948,0.006506666666666666,0.006845128205128204,0.007157435897435897,0.007164102564102564,0.007551794871794871,0.0007538461538461538,0.0034738461538461533,0.000787179487179487,0.0007897435897435897
1785789205.8828125,0.004136923076923076,0.004251282051282051,0.002749230769230769,0.003418974358974359,0.004268717948717948,0.006506666666666666,0.006844615384615384,0.007155384615384614,0.007164102564102564,0.007551794871794871,0.0007538461538461538,0.003475384615384615,0.000787179487179487,0.0007923076923076922
1785789205.890625,0.004137948717948718,0.004251282051282051,0.0027507692307692302,0.0034179487179487175,0.004268717948717948,0.006504615384615384,0.006845128205128204,0.0071548717948717935,0.007166666666666666,0.007551794871794871,0.0007538461538461538,0.0034707692307692304,0.000787179487179487,0.0007882051282051281
1785789205.8984375,0.004138461538461538,0.004251282051282051,0.0027517948717948717,0.0034128205128205126,0.004268717948717948,0.006505641025641025,0.006843076923076922,0.0071569230769230755,0.007164615384615384,0.007551794871794871,0.0007538461538461538,0.0034692307692307687,0.000787179487179487,0.0007866666666666666
1785789205.90625,0.004136923076923076,0.004251282051282051,0.00275025641025641,0.0034071794871794866,0.004268717948717948,0.006507692307692306,0.006844102564102564,0.007155897435897435,0.0071635897435897425,0.007551794871794871,0.0007538461538461538,0.003473333333333333,0.000787179487179487,0.0007882051282051281
1785789205.9140625,0.004135384615384615,0.004251282051282051,0.002748205128205128,0.0034082051282051276,0.004268717948717948,0.006506666666666666,0.006847692307692306,0.007148717948717948,0.007162564102564101,0.007551794871794871,0.0007538461538461538,0.003475384615384615,0.000787179487179487,0.0007866666666666666
1785789205.921875,0.004137435897435897,0.004251282051282051,0.0027507692307692302,0.0034153846153846153,0.004268717948717948,0.006505641025641025,0.006847179487179486,0.007146666666666666,0.007159999999999999,0.007551794871794871,0.0007538461538461538,0.003474358974358974,0.000787179487179487,0.0007866666666666666
1785789205.9296875,0.004138974358974358,0.004251282051282051,0.0027538461538461536,0.003421538461538461,0.004268717948717948,0.006504615384615384,0.006842051282051281,0.007157948717948717,0.007164102564102564,0.007551794871794871,0.0007538461538461538,0.003474358974358974,0.000787179487179487,0.0007876923076923076
1785789205.9375,0.004137435897435897,0.004251282051282051,0.0027517948717948717,0.0034179487179487175,0.004268717948717948,0.006504615384615384,0.00684051282051282,0.007164102564102564,0.007172307692307691,0.007551794871794871,0.0007538461538461538,0.003474358974358974,0.000787179487179487,0.0007897435897435897
1785789205.9453125,0.004136410256410256,0.004251282051282051,0.0027476923076923073,0.003414358974358974,0.004268717948717948,0.006505641025641025,0.006844615384615384,0.007156410256410255,0.007169743589743588,0.007551794871794871,0.0007538461538461538,0.0034758974358974353,0.000787179487179487,0.0007882051282051281
1785789205.953125,0.004137435897435897,0.004251282051282051,0.002749230769230769,0.003421538461538461,0.004268717948717948,0.006504102564102564,0.006845128205128204,0.007155897435897435,0.007165641025641025,0.007551794871794871,0.0007538461538461538,0.003475384615384615,0.000787179487179487,0.0007841025641025641
1785789205.9609375,0.004137435897435897,0.004251282051282051,0.00275025641025641,0.0034282051282051276,0.004268717948717948,0.006502564102564101,0.0068415384615384605,0.007164102564102564,0.007168717948717948,0.007551794871794871,0.0007538461538461538,0.0034712820512820507,0.000787179487179487,0.0007902564102564101
