lsl_timestamp,TP9,AF7,AF8,TP10,Right AUX
97967.541021458,-238.28125,-72.75390625,965.8203125,-126.953125,0.0
97967.544927708,-229.4921875,-69.3359375,965.8203125,-142.08984375,0.0
97967.548833958,-115.234375,-63.4765625,965.8203125,-166.9921875,0.0
97967.552740208,-97.16796875,-69.82421875,965.8203125,-146.97265625,0.0
97967.556646458,-179.19921875,-73.73046875,965.8203125,-111.81640625,0.0
97967.560552708,-220.703125,-73.2421875,965.8203125,-123.53515625,0.0
97967.564458958,-99.12109375,-68.84765625,965.8203125,-152.34375,0.0
97967.568365208,-54.6875,-68.359375,965.8203125,-153.80859375,0.0
97967.572271458,-130.37109375,-74.21875,965.8203125,-125.48828125,0.0
97967.576177708,-214.84375,-66.89453125,965.8203125,-108.88671875,0.0
97967.580083958,-105.46875,-74.21875,965.8203125,-140.13671875,0.0
97967.583990208,-40.0390625,-89.84375,965.8203125,-158.69140625,0.0
97967.588202541,-87.890625,-88.8671875,965.8203125,-138.18359375,0.0
97967.592108791,-222.16796875,-80.078125,966.30859375,-117.1875,0.0
97967.596015041,-157.2265625,-82.03125,965.8203125,-142.578125,0.0
97967.599921291,-41.9921875,-85.44921875,966.30859375,-145.5078125,0.0
97967.603827541,-62.98828125,-85.9375,965.8203125,-123.046875,0.0
97967.607733791,-184.5703125,-87.890625,966.30859375,-113.76953125,0.0
97967.611640041,-174.8046875,-91.30859375,965.33203125,-115.234375,0.0
97967.615546291,-34.66796875,-96.6796875,964.35546875,-126.953125,0.0
97967.619452541,-24.4140625,-99.609375,965.8203125,-120.60546875,0.0
97967.623358791,-123.046875,-102.05078125,900.390625,-92.7734375,0.0
97967.627265041,-181.15234375,-103.515625,800.29296875,-104.98046875,0.0
97967.631171291,-36.1328125,-99.609375,752.9296875,-157.2265625,0.0
97967.608511166,23.92578125,-102.05078125,719.7265625,-165.0390625,0.0
97967.612417416,-58.10546875,-107.421875,683.59375,-124.0234375,0.0
97967.616323666,-174.8046875,-109.86328125,639.16015625,-112.3046875,0.0
97967.620229916,-67.87109375,-104.00390625,596.6796875,-138.18359375,0.0
97967.624136166,11.71875,-102.5390625,560.546875,-128.41796875,0.0
97967.628042416,-38.0859375,-109.375,515.13671875,-101.5625,0.0
97967.631948666,-170.41015625,-109.375,507.8125,-88.37890625,0.0
97967.635854916,-107.421875,-107.91015625,517.08984375,-128.41796875,0.0
97967.639761166,20.99609375,-103.02734375,461.42578125,-143.5546875,0.0
97967.643667416,6.34765625,-102.5390625,431.15234375,-115.234375,0.0
97967.647573666,-125.48828125,-109.375,747.55859375,-98.6328125,0.0
97967.651479916,-144.04296875,-102.05078125,929.19921875,-87.40234375,0.0
97967.655114083,12.6953125,-96.6796875,786.1328125,-109.86328125,0.0
97967.659020333,46.875,-103.515625,693.359375,-118.65234375,0.0
97967.662926583,-78.61328125,-113.76953125,619.62890625,-88.8671875,0.0
97967.666832833,-169.921875,-114.74609375,546.875,-66.89453125,0.0
97967.670739083,-23.4375,-110.3515625,486.81640625,-89.84375,0.0
97967.674645333,51.26953125,-111.81640625,433.10546875,-107.421875,0.0
97967.678551583,-20.01953125,-111.81640625,334.47265625,-84.9609375,0.0
97967.682457833,-136.71875,-108.88671875,206.54296875,-64.453125,0.0
97967.686364083,-26.85546875,-103.02734375,134.765625,-87.890625,0.0
97967.690270333,56.640625,-104.98046875,-24.4140625,-95.21484375,0.0
97967.694176583,-11.23046875,-107.91015625,-249.0234375,-82.03125,0.0
97967.698082833,-159.66796875,-104.00390625,-310.546875,-73.2421875,0.0
97967.720285791,-123.046875,-104.4921875,-325.1953125,-73.2421875,0.0
97967.724192041,25.390625,-105.46875,-356.4453125,-78.61328125,0.0
97967.728098291,28.3203125,-103.515625,-327.1484375,-60.546875,0.0
97967.732004541,-113.76953125,-105.95703125,-299.8046875,-36.62109375,0.0
97967.735910791,-134.27734375,-99.12109375,-300.78125,-46.875,0.0
97967.739817041,8.30078125,-95.703125,-292.48046875,-70.80078125,0.0
97967.743723291,37.59765625,-98.14453125,-270.5078125,-33.203125,0.0
97967.747629541,-46.875,-85.44921875,-215.8203125,-23.92578125,0.0
97967.751535791,-118.1640625,-75.68359375,-180.17578125,-49.31640625,0.0
97967.755442041,-6.34765625,-74.70703125,-171.38671875,-48.828125,0.0
97967.759348291,48.33984375,-72.75390625,-172.36328125,-52.734375,0.0
97967.763254541,0.48828125,-76.66015625,-189.453125,-51.26953125,0.0
97967.766738625,-143.06640625,-77.63671875,-209.47265625,-45.8984375,0.0
97967.770644875,-77.63671875,-80.078125,-220.21484375,-68.84765625,0.0
97967.774551125,45.41015625,-76.66015625,-232.421875,-68.359375,0.0
97967.778457375,26.85546875,-72.75390625,-254.8828125,-46.875,0.0
97967.782363625,-114.2578125,-72.75390625,-289.0625,-40.52734375,0.0
97967.786269875,-120.1171875,-75.68359375,-328.61328125,-62.5,0.0
97967.790176125,2.44140625,-94.7265625,-371.09375,-86.42578125,0.0
97967.794082375,22.4609375,-96.6796875,-397.4609375,-66.40625,0.0
97967.797988625,-107.91015625,-91.796875,-415.52734375,-43.9453125,0.0
97967.801894875,-177.24609375,-90.8203125,-434.5703125,-41.50390625,0.0
97967.805801125,-38.0859375,-83.984375,-445.3125,-69.82421875,0.0
97967.809707375,14.6484375,-85.9375,-462.890625,-69.82421875,0.0
97967.814096,-85.9375,-93.26171875,-529.296875,-42.48046875,0.0
97967.81800225,-206.0546875,-91.796875,-665.52734375,-52.24609375,0.0
97967.8219085,-113.76953125,-87.40234375,-786.62109375,-79.1015625,0.0
97967.82581475,-36.62109375,-83.49609375,-873.046875,-80.56640625,0.0
97967.829721,-78.125,-82.03125,-952.63671875,-59.08203125,0.0
97967.83362725,-231.93359375,-89.84375,-997.0703125,-55.17578125,0.0
97967.8375335,-166.9921875,-89.84375,-1000.0,-82.03125,0.0
97967.84143975,-46.38671875,-93.75,-999.51171875,-86.42578125,0.0
97967.845346,-66.89453125,-107.421875,-1000.0,-45.41015625,0.0
97967.84925225,-200.68359375,-113.76953125,-1000.0,-26.3671875,0.0
97967.8531585,-182.12890625,-94.7265625,-1000.0,-67.87109375,0.0
97967.85706475,-23.92578125,-89.84375,-1000.0,-108.3984375,0.0
97967.904857625,-23.92578125,-112.79296875,-1000.0,-95.703125,0.0
97967.890918083,-154.78515625,-117.67578125,-1000.0,-53.22265625,0.0
97967.894824333,-225.09765625,-117.1875,-1000.0,-40.0390625,0.0
97967.898730583,-87.40234375,-126.953125,-1000.0,-66.89453125,0.0
97967.902636833,-19.04296875,-138.671875,-1000.0,-67.87109375,0.0
97967.906543083,-119.140625,-147.94921875,-1000.0,-52.734375,0.0
97967.910449333,-228.515625,-149.4140625,-1000.0,-64.94140625,0.0
97967.914355583,-81.54296875,-150.87890625,-1000.0,-83.0078125,0.0
97967.918261833,50.29296875,-156.73828125,-1000.0,-96.19140625,0.0
97967.922168083,33.203125,-166.50390625,-1000.0,-76.66015625,0.0
97967.926074333,-94.7265625,-168.45703125,-1000.0,-68.359375,0.0
97967.929980583,-41.9921875,-169.43359375,-1000.0,-85.9375,0.0
97967.910128208,61.5234375,-165.0390625,-1000.0,-87.890625,0.0
97967.914034458,37.59765625,-151.85546875,-1000.0,-79.58984375,0.0
97967.917940708,-127.44140625,-146.484375,-1000.0,-70.80078125,0.0
97967.921846958,-169.921875,-145.5078125,-1000.0,-85.44921875,0.0
97967.925753208,-25.87890625,-140.13671875,-1000.0,-104.98046875,0.0
97967.929659458,3.41796875,-122.55859375,-1000.0,-88.8671875,0.0
97967.933565708,-106.4453125,-111.81640625,-1000.0,-63.4765625,0.0
97967.937471958,-178.22265625,-121.09375,-1000.0,-63.4765625,0.0
97967.941378208,-48.828125,-127.9296875,-1000.0,-62.98828125,0.0
97967.945284458,25.87890625,-113.28125,-1000.0,-47.36328125,0.0
97967.949190708,-59.5703125,-104.4921875,-1000.0,-34.66796875,0.0
97967.953096958,-201.171875,-106.93359375,-1000.0,-44.921875,0.0
97967.9563405,-90.8203125,-104.4921875,-1000.0,-59.08203125,0.0
97967.96024675,33.69140625,-105.95703125,-1000.0,-41.9921875,0.0
97967.964153,-23.92578125,-113.76953125,-1000.0,-22.4609375,0.0
97967.96805925,-195.80078125,-109.86328125,-1000.0,-21.484375,0.0
97967.9719655,-150.87890625,-102.5390625,-1000.0,-41.9921875,0.0
97967.97587175,-11.71875,-105.46875,-1000.0,-52.734375,0.0
97967.979778,-17.08984375,-106.93359375,-1000.0,-40.52734375,0.0
97967.98368425,-153.80859375,-103.515625,-1000.0,-37.59765625,0.0
97967.9875905,-209.47265625,-103.02734375,-1000.0,-31.25,0.0
97967.99149675,-64.94140625,-105.95703125,-1000.0,-53.22265625,0.0
97967.995403,-24.90234375,-111.328125,-1000.0,-80.56640625,0.0
97967.99930925,-122.0703125,-111.328125,-1000.0,-73.73046875,0.0
97968.005999833,-217.28515625,-109.86328125,-1000.0,-74.70703125,0.0
97968.009906083,-92.28515625,-108.88671875,-1000.0,-92.28515625,0.0
97968.013812333,-16.6015625,-113.28125,-1000.0,-89.35546875,0.0
97968.017718583,-68.359375,-113.76953125,-1000.0,-81.0546875,0.0
97968.021624833,-188.4765625,-110.3515625,-1000.0,-93.75,0.0
97968.025531083,-98.6328125,-104.98046875,-1000.0,-101.5625,0.0
97968.029437333,32.71484375,-104.4921875,-1000.0,-96.6796875,0.0
97968.033343583,5.37109375,-118.65234375,-1000.0,-80.56640625,0.0
97968.037249833,-152.34375,-77.63671875,-1000.0,-69.82421875,0.0
97968.041156083,-122.55859375,-12.20703125,-1000.0,-83.49609375,0.0
97968.045062333,35.15625,9.27734375,-1000.0,-80.56640625,0.0
97968.048968583,40.0390625,28.80859375,-1000.0,-57.12890625,0.0
97968.050522625,-83.984375,47.8515625,-1000.0,-50.78125,0.0
97968.054428875,-134.27734375,50.29296875,-1000.0,-57.12890625,0.0
97968.058335125,25.87890625,55.6640625,-1000.0,-77.63671875,0.0
97968.062241375,95.703125,52.734375,-1000.0,-76.66015625,0.0
97968.066147625,-24.4140625,36.62109375,-1000.0,-58.10546875,0.0
97968.070053875,-133.30078125,25.390625,-1000.0,-58.10546875,0.0
97968.073960125,4.8828125,25.390625,-1000.0,-74.70703125,0.0
97968.077866375,91.30859375,22.94921875,-1000.0,-73.2421875,0.0
97968.081772625,33.69140625,16.6015625,-1000.0,-61.5234375,0.0
97968.085678875,-127.9296875,10.7421875,-1000.0,-56.15234375,0.0
97968.089585125,-57.6171875,8.7890625,-1000.0,-68.359375,0.0
97968.093491375,91.796875,10.25390625,-1000.0,-77.63671875,0.0
97968.095610416,76.171875,5.37109375,-1000.0,-71.77734375,0.0
97968.099516666,-79.1015625,-7.32421875,-1000.0,-71.2890625,0.0
97968.103422916,-36.1328125,-5.37109375,-1000.0,-95.21484375,0.0
97968.107329166,123.53515625,-10.7421875,-1000.0,-98.14453125,0.0
97968.111235416,85.9375,-18.5546875,-1000.0,-72.75390625,0.0
97968.115141666,-7.8125,-9.27734375,-1000.0,-71.77734375,0.0
97968.119047916,-60.05859375,-3.41796875,-1000.0,-100.09765625,0.0
97968.122954166,57.6171875,-0.9765625,-1000.0,-131.8359375,0.0
97968.126860416,107.91015625,-3.41796875,-1000.0,-136.71875,0.0
97968.130766666,-48.33984375,-18.06640625,-1000.0,-121.58203125,0.0
97968.134672916,-187.01171875,-22.4609375,-1000.0,-136.23046875,0.0
97968.138579166,-79.58984375,-19.53125,-1000.0,-154.78515625,0.0
97968.141237333,3.41796875,-38.57421875,-1000.0,-147.4609375,0.0
97968.145143583,-38.0859375,-34.66796875,-1000.0,-136.71875,0.0
97968.149049833,-153.3203125,-17.08984375,-1000.0,-134.27734375,0.0
97968.152956083,-113.76953125,-17.578125,-1000.0,-145.99609375,0.0
97968.156862333,-2.44140625,-12.20703125,-1000.0,-166.015625,0.0
97968.160768583,-44.43359375,-12.20703125,-1000.0,-159.1796875,0.0
97968.164674833,-209.9609375,-19.04296875,-1000.0,-123.046875,0.0
97968.168581083,-205.56640625,-3.90625,-1000.0,-137.6953125,0.0
97968.172487333,-54.6875,-6.34765625,-1000.0,-160.64453125,0.0
97968.176393583,13.18359375,-7.32421875,-1000.0,-126.46484375,0.0
97968.180299833,-162.59765625,-5.37109375,-1000.0,-103.02734375,0.0
97968.184206083,-334.47265625,2.44140625,-1000.0,-117.1875,0.0
97968.187380375,-152.83203125,23.4375,-1000.0,-136.71875,0.0
97968.191286625,12.20703125,23.92578125,-1000.0,-136.23046875,0.0
97968.195192875,-104.00390625,22.94921875,-1000.0,-122.55859375,0.0
97968.199099125,-287.59765625,25.390625,-1000.0,-142.08984375,0.0
97968.203005375,-15.625,63.4765625,-1000.0,-170.41015625,0.0
97968.206911625,197.265625,103.02734375,-1000.0,-160.64453125,0.0
97968.210817875,181.640625,166.9921875,-1000.0,-139.16015625,0.0
97968.214724125,80.56640625,239.74609375,-1000.0,-129.8828125,0.0
97968.218630375,150.87890625,295.8984375,-1000.0,-144.04296875,0.0
97968.222536625,334.9609375,408.69140625,-1000.0,-142.08984375,0.0
97968.226442875,368.1640625,542.48046875,-1000.0,-117.67578125,0.0
97968.230349125,185.05859375,661.1328125,-1000.0,-109.375,0.0
97968.234767708,124.51171875,776.3671875,-1000.0,-132.8125,0.0
97968.238673958,310.05859375,859.86328125,-1000.0,-137.20703125,0.0
97968.242580208,354.00390625,895.99609375,-1000.0,-115.234375,0.0
97968.246486458,197.265625,937.98828125,-1000.0,-115.234375,0.0
97968.250392708,121.58203125,966.796875,-1000.0,-131.8359375,0.0
97968.254298958,292.96875,965.33203125,-1000.0,-146.484375,0.0
97968.258205208,355.95703125,965.8203125,-1000.0,-147.4609375,0.0
97968.262111458,246.09375,966.30859375,-1000.0,-134.765625,0.0
97968.266017708,77.1484375,965.8203125,-1000.0,-135.25390625,0.0
97968.269923958,144.53125,966.30859375,-1000.0,-146.484375,0.0
97968.273830208,248.046875,965.8203125,-1000.0,-162.109375,0.0
97968.277736458,191.89453125,966.30859375,-1000.0,-149.4140625,0.0
97968.27783175,19.53125,966.30859375,-1000.0,-135.7421875,0.0
97968.281738,7.8125,965.8203125,-1000.0,-145.01953125,0.0
97968.28564425,163.57421875,965.8203125,-1000.0,-148.92578125,0.0
97968.2895505,186.03515625,966.30859375,-1000.0,-127.44140625,0.0
97968.29345675,17.578125,966.30859375,-1000.0,-97.16796875,0.0
97968.297363,-32.71484375,965.8203125,-1000.0,-87.890625,0.0
97968.30126925,119.140625,966.30859375,-1000.0,-110.3515625,0.0
97968.3051755,153.3203125,966.30859375,-1000.0,-95.21484375,0.0
97968.30908175,47.8515625,965.8203125,-1000.0,-52.24609375,0.0
97968.312988,-81.0546875,966.30859375,-1000.0,-55.17578125,0.0
97968.31689425,57.12890625,966.30859375,-1000.0,-83.49609375,0.0
97968.3208005,146.484375,965.8203125,-1000.0,-86.42578125,0.0
97968.346203416,22.94921875,966.30859375,-1000.0,-73.73046875,0.0
97968.350109666,-155.2734375,966.30859375,-1000.0,-68.359375,0.0
97968.354015916,-103.515625,965.8203125,-1000.0,-85.44921875,0.0
97968.357922166,24.4140625,965.8203125,-1000.0,-92.28515625,0.0
97968.361828416,-18.06640625,965.8203125,-1000.0,-92.7734375,0.0
97968.365734666,-236.328125,966.30859375,-1000.0,-102.05078125,0.0
97968.369640916,-234.86328125,966.30859375,-1000.0,-119.62890625,0.0
97968.373547166,-67.3828125,966.30859375,-1000.0,-128.90625,0.0
97968.377453416,-70.80078125,966.30859375,-1000.0,-116.2109375,0.0
97968.381359666,-284.1796875,965.33203125,-1000.0,-120.1171875,0.0
97968.385265916,-405.2734375,966.796875,-1000.0,-146.484375,0.0
97968.389172166,-269.53125,962.890625,-1000.0,-160.15625,0.0
97968.368422291,-253.41796875,932.6171875,-1000.0,-174.31640625,0.0
97968.372328541,-444.82421875,882.32421875,-1000.0,-195.80078125,0.0
97968.376234791,-676.26953125,821.2890625,-1000.0,-188.4765625,0.0
97968.380141041,-580.078125,791.50390625,-1000.0,-195.80078125,0.0
97968.384047291,-514.16015625,761.23046875,-1000.0,-199.70703125,0.0
97968.387953541,-595.21484375,704.58984375,-1000.0,-161.62109375,0.0
97968.391859791,-695.80078125,664.0625,-1000.0,-161.62109375,0.0
97968.395766041,-606.4453125,634.27734375,-1000.0,-167.96875,0.0
97968.399672291,-428.22265625,604.98046875,-1000.0,-167.48046875,0.0
97968.403578541,-456.0546875,579.1015625,-1000.0,-174.31640625,0.0
97968.407484791,-650.87890625,538.57421875,-1000.0,-161.62109375,0.0
97968.411391041,-677.734375,498.53515625,-1000.0,-162.59765625,0.0
97968.4164835,-538.57421875,479.98046875,-1000.0,-191.40625,0.0
97968.42038975,-573.2421875,449.70703125,-1000.0,-183.10546875,0.0
97968.424296,-796.38671875,418.9453125,-1000.0,-146.97265625,0.0
97968.42820225,-963.8671875,398.92578125,-1000.0,-146.484375,0.0
97968.4321085,-807.12890625,369.62890625,-1000.0,-159.1796875,0.0
97968.43601475,-742.67578125,340.33203125,-1000.0,-174.8046875,0.0
97968.439921,-827.63671875,310.05859375,-1000.0,-147.4609375,0.0
97968.44382725,-949.21875,290.0390625,-1000.0,-117.1875,0.0
97968.4477335,-833.984375,265.625,-1000.0,-150.390625,0.0
97968.45163975,-740.234375,217.28515625,-1000.0,-168.45703125,0.0
97968.455546,-808.10546875,192.87109375,-1000.0,-142.08984375,0.0
97968.45945225,-973.6328125,179.19921875,-1000.0,-144.04296875,0.0
97968.48808825,-917.96875,160.15625,-1000.0,-160.64453125,0.0
97968.4919945,-718.75,162.109375,-1000.0,-159.66796875,0.0
97968.49590075,-725.09765625,139.6484375,-1000.0,-182.6171875,0.0
97968.499807,-900.390625,99.12109375,-1000.0,-191.40625,0.0
97968.50371325,-917.48046875,62.5,-1000.0,-218.26171875,0.0
97968.5076195,-708.0078125,32.71484375,-1000.0,-269.53125,0.0
97968.51152575,-603.515625,9.27734375,-1000.0,-291.9921875,0.0
97968.515432,-695.3125,-23.92578125,-1000.0,-296.875,0.0
97968.51933825,-764.16015625,-60.05859375,-1000.0,-321.77734375,0.0
97968.5232445,-526.85546875,-106.93359375,-1000.0,-358.3984375,0.0
97968.52715075,-389.16015625,-144.53125,-1000.0,-349.12109375,0.0
97968.531057,-433.10546875,-180.17578125,-1000.0,-341.30859375,0.0
97968.508359625,-545.41015625,-210.44921875,-1000.0,-364.74609375,0.0
97968.512265875,-395.01953125,-245.1171875,-1000.0,-370.1171875,0.0
97968.516172125,-213.8671875,-269.04296875,-1000.0,-380.37109375,0.0
97968.520078375,-228.02734375,-279.296875,-1000.0,-380.859375,0.0
97968.523984625,-389.16015625,-291.9921875,-1000.0,-355.46875,0.0
97968.527890875,-360.83984375,-296.875,-1000.0,-354.98046875,0.0
97968.531797125,-162.109375,-297.8515625,-1000.0,-344.23828125,0.0
97968.535703375,-133.7890625,-298.33984375,-1000.0,-309.08203125,0.0
97968.539609625,-332.51953125,-296.38671875,-1000.0,-290.52734375,0.0
97968.543515875,-391.11328125,-303.7109375,-1000.0,-292.48046875,0.0
97968.547422125,-180.17578125,-316.40625,-1000.0,-286.1328125,0.0
97968.551328375,-100.5859375,-315.91796875,-1000.0,-260.7421875,0.0
97968.578873916,-195.3125,-320.80078125,-1000.0,-217.28515625,0.0
97968.582780166,-300.78125,-334.47265625,-1000.0,-189.94140625,0.0
97968.586686416,-127.9296875,-325.1953125,-1000.0,-204.58984375,0.0
97968.590592666,55.17578125,-320.3125,-1000.0,-166.015625,0.0
97968.594498916,51.26953125,-319.82421875,-1000.0,-130.859375,0.0
97968.598405166,-90.33203125,-323.2421875,-1000.0,-155.76171875,0.0
97968.602311416,47.36328125,-317.3828125,-1000.0,-170.8984375,0.0
97968.606217666,250.0,-307.12890625,-1000.0,-153.80859375,0.0
97968.610123916,254.8828125,-309.5703125,-1000.0,-138.671875,0.0
97968.614030166,82.03125,-312.5,-1000.0,-136.23046875,0.0
97968.617936416,97.65625,-297.36328125,-1000.0,-150.87890625,0.0
97968.621842666,313.4765625,-282.2265625,-1000.0,-140.625,0.0
97968.642545875,366.2109375,-270.99609375,-1000.0,-89.84375,0.0
97968.62435125,210.44921875,-254.39453125,-1000.0,-83.0078125,0.0
97968.6282575,90.33203125,-238.28125,-1000.0,-98.14453125,0.0
97968.63216375,277.83203125,-232.421875,-1000.0,-31.73828125,0.0
97968.63607,390.625,-215.33203125,-1000.0,-5.859375,0.0
97968.63997625,265.13671875,-203.125,-1000.0,-20.99609375,0.0
97968.6438825,134.27734375,-187.98828125,-1000.0,19.04296875,0.0
97968.64778875,288.0859375,-166.9921875,-1000.0,29.296875,0.0
97968.651695,420.8984375,-166.015625,-1000.0,48.33984375,0.0
97968.65560125,322.75390625,-149.4140625,-1000.0,44.921875,0.0
97968.6595075,43.9453125,-139.16015625,-1000.0,24.90234375,0.0
97968.66341375,139.16015625,-147.94921875,-1000.0,56.640625,0.0
97968.664590958,333.984375,-165.52734375,-1000.0,83.984375,0.0
97968.668497208,216.30859375,-169.43359375,-1000.0,100.09765625,0.0
97968.672403458,-41.50390625,-176.26953125,-1000.0,102.05078125,0.0
97968.676309708,-126.46484375,-188.4765625,-1000.0,57.6171875,0.0
97968.680215958,-37.59765625,-190.91796875,-1000.0,41.9921875,0.0
97968.684122208,-80.078125,-211.9140625,-1000.0,56.640625,0.0
97968.688028458,-269.04296875,-221.6796875,-1000.0,84.9609375,0.0
97968.691934708,-446.2890625,-206.54296875,-1000.0,73.2421875,0.0
97968.695840958,-286.1328125,-236.81640625,-1000.0,67.87109375,0.0
97968.699747208,-143.5546875,-254.8828125,-1000.0,66.89453125,0.0
97968.703653458,-284.1796875,-251.953125,-1000.0,53.7109375,0.0
97968.707559708,-436.03515625,-297.36328125,-1000.0,80.078125,0.0
97968.730449041,-284.66796875,-320.3125,-1000.0,38.57421875,0.0
97968.716530916,-145.01953125,-312.5,-1000.0,10.7421875,0.0
97968.720437166,-157.2265625,-332.03125,-1000.0,55.17578125,0.0
97968.724343416,-319.3359375,-348.6328125,-1000.0,50.29296875,0.0
97968.728249666,-264.16015625,-341.30859375,-1000.0,8.30078125,0.0
97968.732155916,-39.55078125,-347.16796875,-1000.0,20.5078125,0.0
97968.736062166,-42.48046875,-316.89453125,-1000.0,90.8203125,0.0
97968.739968416,-277.34375,-302.734375,-1000.0,76.66015625,0.0
97968.743874666,-251.953125,-337.40234375,-1000.0,63.4765625,0.0
97968.747780916,-25.390625,-316.40625,-1000.0,62.98828125,0.0
97968.751687166,-26.3671875,-300.29296875,-1000.0,62.5,0.0
97968.755593416,-207.51953125,-287.109375,-1000.0,104.4921875,0.0
97968.758687708,-353.02734375,-285.15625,-1000.0,98.6328125,0.0
97968.762593958,-192.87109375,-284.1796875,-1000.0,18.5546875,0.0
97968.766500208,-136.23046875,-256.8359375,-1000.0,44.43359375,0.0
97968.770406458,-266.6015625,-258.30078125,-1000.0,84.9609375,0.0
97968.774312708,-472.16796875,-246.09375,-1000.0,56.640625,0.0
97968.778218958,-360.3515625,-226.5625,-1000.0,42.48046875,0.0
97968.782125208,-208.0078125,-209.9609375,-1000.0,53.7109375,0.0
97968.786031458,-279.78515625,-215.33203125,-1000.0,45.41015625,0.0
97968.789937708,-542.48046875,-200.1953125,-1000.0,34.1796875,0.0
97968.793843958,-559.5703125,-184.5703125,-1000.0,10.7421875,0.0
97968.797750208,-389.16015625,-201.171875,-1000.0,19.53125,0.0
97968.801656458,-431.640625,-203.125,-1000.0,54.6875,0.0
97968.779095041,-663.57421875,-182.12890625,-1000.0,47.36328125,0.0
97968.783001291,-703.61328125,-188.4765625,-1000.0,74.21875,0.0
97968.786907541,-502.44140625,-181.15234375,-1000.0,79.58984375,0.0
97968.790813791,-465.8203125,-180.17578125,-1000.0,33.203125,0.0
97968.794720041,-603.515625,-193.84765625,-1000.0,49.8046875,0.0
97968.798626291,-722.16796875,-202.63671875,-1000.0,89.35546875,0.0
97968.802532541,-502.44140625,-208.49609375,-978.02734375,97.65625,0.0
97968.806438791,-312.01171875,-197.265625,-1000.0,76.66015625,0.0
97968.810345041,-328.61328125,-188.96484375,-782.2265625,90.33203125,0.0
97968.814251291,-439.453125,-193.359375,132.8125,100.5859375,0.0
97968.818157541,-244.140625,-190.4296875,886.23046875,95.703125,0.0
97968.822063791,4.8828125,-187.98828125,968.26171875,64.453125,0.0
97968.850820083,38.57421875,-184.08203125,947.75390625,108.88671875,0.0
97968.854726333,-119.62890625,-184.08203125,971.19140625,91.796875,0.0
97968.858632583,-58.10546875,-191.89453125,965.8203125,12.20703125,0.0
97968.862538833,209.9609375,-180.17578125,966.30859375,32.2265625,0.0
97968.866445083,270.99609375,-174.31640625,965.8203125,49.8046875,0.0
97968.870351333,141.11328125,-164.55078125,966.30859375,47.8515625,0.0
97968.874257583,99.609375,-149.4140625,965.8203125,43.45703125,0.0
97968.878163833,322.265625,-140.13671875,965.8203125,8.30078125,0.0
97968.882070083,444.3359375,-132.8125,965.8203125,32.2265625,0.0
97968.885976333,343.26171875,-129.39453125,965.8203125,72.265625,0.0
97968.889882583,200.68359375,-123.046875,965.8203125,71.2890625,0.0
97968.893788833,380.859375,-122.0703125,966.30859375,73.2421875,0.0
97968.896679083,531.25,-122.55859375,965.8203125,80.078125,0.0
97968.900585333,461.42578125,-120.60546875,965.8203125,99.12109375,0.0
97968.904491583,261.71875,-123.53515625,966.30859375,123.53515625,0.0
97968.908397833,370.1171875,-128.41796875,965.8203125,115.234375,0.0
97968.912304083,572.75390625,-121.09375,965.33203125,91.30859375,0.0
97968.916210333,535.64453125,-115.72265625,965.8203125,127.44140625,0.0
97968.920116583,331.0546875,-128.41796875,965.8203125,142.08984375,0.0
97968.924022833,330.56640625,-132.32421875,965.8203125,117.1875,0.0
97968.927929083,535.64453125,-135.7421875,965.8203125,121.58203125,0.0
97968.931835333,570.80078125,-130.37109375,965.8203125,132.32421875,0.0
97968.935741583,409.1796875,-132.8125,965.8203125,149.4140625,0.0
97968.939647833,318.84765625,-138.671875,965.8203125,137.20703125,0.0
97968.94363475,518.06640625,-135.25390625,965.8203125,116.2109375,0.0
97968.947541,608.3984375,-138.18359375,966.30859375,145.01953125,0.0
97968.95144725,485.3515625,-137.6953125,965.8203125,162.109375,0.0
97968.9553535,303.7109375,-134.27734375,965.8203125,149.90234375,0.0
97968.95925975,462.890625,-140.625,965.8203125,138.18359375,0.0
97968.963166,615.234375,-152.34375,965.8203125,142.08984375,0.0
97968.96707225,526.3671875,-147.4609375,965.8203125,142.578125,0.0
97968.9709785,292.96875,-145.5078125,966.30859375,139.16015625,0.0
97968.97488475,334.9609375,-152.83203125,966.30859375,129.39453125,0.0
97968.978791,511.23046875,-161.62109375,965.8203125,129.8828125,0.0
97968.98269725,490.72265625,-166.015625,965.8203125,143.5546875,0.0
97968.9866035,286.62109375,-165.52734375,965.8203125,141.11328125,0.0
97968.992852625,235.83984375,-164.0625,965.8203125,113.76953125,0.0
97968.996758875,423.33984375,-166.015625,965.8203125,105.46875,0.0
97969.000665125,460.9375,-176.26953125,965.8203125,117.67578125,0.0
97969.004571375,302.734375,-190.91796875,965.8203125,128.90625,0.0
97969.008477625,192.3828125,-215.8203125,965.8203125,123.046875,0.0
97969.012383875,356.93359375,-237.79296875,965.8203125,108.3984375,0.0
97969.016290125,441.40625,-255.859375,965.8203125,115.72265625,0.0
97969.020196375,316.40625,-274.4140625,965.8203125,132.32421875,0.0
97969.024102625,114.74609375,-290.52734375,966.30859375,111.328125,0.0
97969.028008875,248.046875,-312.5,965.8203125,100.09765625,0.0
97969.031915125,397.94921875,-330.078125,965.8203125,87.40234375,0.0
97969.035821375,323.2421875,-351.07421875,965.8203125,73.73046875,0.0
97969.039137541,104.4921875,-369.140625,965.8203125,100.5859375,0.0
97969.043043791,148.4375,-382.32421875,965.8203125,105.95703125,0.0
97969.046950041,355.46875,-404.78515625,965.8203125,92.7734375,0.0
97969.050856291,334.47265625,-418.45703125,965.8203125,107.421875,0.0
97969.054762541,128.90625,-424.8046875,965.8203125,93.26171875,0.0
97969.058668791,91.30859375,-431.15234375,965.8203125,70.80078125,0.0
97969.062575041,301.26953125,-429.19921875,965.8203125,64.453125,0.0
97969.066481291,363.28125,-431.640625,965.8203125,83.0078125,0.0
97969.070387541,214.84375,-432.6171875,966.30859375,106.4453125,0.0
97969.074293791,75.68359375,-421.875,966.30859375,74.70703125,0.0
97969.078200041,256.34765625,-410.64453125,965.8203125,42.48046875,0.0
97969.082106291,372.0703125,-406.25,965.8203125,43.9453125,0.0
97969.082727875,286.62109375,-416.50390625,965.8203125,69.3359375,0.0
97969.086634125,107.421875,-400.87890625,965.8203125,67.87109375,0.0
97969.090540375,235.83984375,-380.859375,966.30859375,56.640625,0.0
97969.094446625,399.90234375,-373.53515625,966.30859375,54.6875,0.0
97969.098352875,337.40234375,-365.234375,966.796875,55.17578125,0.0
97969.102259125,122.55859375,-359.86328125,964.35546875,62.98828125,0.0
97969.106165375,139.16015625,-341.796875,968.26171875,47.36328125,0.0
97969.110071625,338.8671875,-328.125,951.171875,33.69140625,0.0
97969.113977875,352.05078125,-316.89453125,888.18359375,62.5,0.0
97969.117884125,179.19921875,-301.7578125,849.12109375,71.77734375,0.0
97969.121790375,85.44921875,-291.50390625,841.796875,44.43359375,0.0
97969.125696625,257.8125,-285.64453125,828.61328125,30.2734375,0.0
97969.127362,349.609375,-278.80859375,814.453125,54.19921875,0.0
97969.13126825,227.5390625,-272.94921875,784.1796875,98.14453125,0.0
97969.1351745,78.125,-268.5546875,727.05078125,111.328125,0.0
97969.13908075,243.65234375,-264.16015625,658.69140625,94.23828125,0.0
97969.142987,376.46484375,-253.90625,598.6328125,94.7265625,0.0
97969.14689325,291.015625,-246.09375,537.59765625,110.3515625,0.0
97969.1507995,87.890625,-241.2109375,460.9375,112.3046875,0.0
97969.15470575,189.94140625,-229.00390625,389.6484375,106.4453125,0.0
97969.158612,365.72265625,-225.09765625,334.47265625,102.05078125,0.0
97969.16251825,327.1484375,-224.609375,264.6484375,97.65625,0.0
97969.1664245,131.8359375,-217.7734375,187.01171875,107.421875,0.0
97969.17033075,124.51171875,-213.37890625,126.953125,85.44921875,0.0
97969.195072166,333.49609375,-204.58984375,91.796875,64.453125,0.0
97969.176768416,372.55859375,-196.2890625,52.24609375,77.1484375,0.0
97969.180674666,200.68359375,-191.40625,-10.25390625,75.68359375,0.0
97969.184580916,102.5390625,-188.4765625,-45.8984375,67.3828125,0.0
97969.188487166,298.33984375,-179.19921875,-42.96875,57.6171875,0.0
97969.192393416,393.5546875,-169.921875,-30.76171875,42.96875,0.0
97969.196299666,264.6484375,-171.38671875,-17.08984375,57.12890625,0.0
97969.200205916,93.26171875,-167.48046875,-12.20703125,74.70703125,0.0
97969.204112166,240.234375,-163.0859375,-16.11328125,50.78125,0.0
97969.208018416,368.65234375,-164.0625,-29.78515625,42.48046875,0.0
97969.211924666,287.59765625,-160.64453125,-11.23046875,59.08203125,0.0
97969.215830916,81.0546875,-152.83203125,26.3671875,65.91796875,0.0
97969.221660208,160.64453125,-153.3203125,23.92578125,69.82421875,0.0
97969.225566458,348.6328125,-150.87890625,-3.90625,59.08203125,0.0
97969.229472708,317.3828125,-141.6015625,-47.36328125,42.48046875,0.0
97969.233378958,137.20703125,-142.08984375,-90.33203125,56.640625,0.0
97969.237285208,100.09765625,-140.625,-133.7890625,68.359375,0.0
97969.241191458,276.3671875,-138.18359375,-180.17578125,41.50390625,0.0
97969.245097708,316.40625,-138.671875,-230.95703125,43.45703125,0.0
97969.249003958,142.08984375,-126.46484375,-273.92578125,49.31640625,0.0
97969.252910208,19.04296875,-127.9296875,-303.22265625,48.33984375,0.0
97969.256816458,220.21484375,-131.8359375,-304.6875,34.66796875,0.0
97969.260722708,309.5703125,-126.953125,-308.59375,20.01953125,0.0
97969.264628958,184.08203125,-127.9296875,-325.68359375,33.203125,0.0
97969.269056541,7.8125,-115.72265625,-363.28125,30.76171875,0.0
97969.272962791,144.04296875,-115.72265625,-396.97265625,20.01953125,0.0
97969.276869041,286.62109375,-111.328125,-418.45703125,17.578125,0.0
97969.280775291,229.00390625,-97.65625,-451.66015625,32.2265625,0.0
97969.284681541,36.1328125,-102.05078125,-495.60546875,30.76171875,0.0
97969.288587791,62.98828125,-93.75,-522.94921875,20.99609375,0.0
97969.292494041,219.7265625,-90.33203125,-538.0859375,26.3671875,0.0
97969.296400291,233.88671875,-86.9140625,-567.3828125,27.34375,0.0
97969.300306541,87.890625,-83.984375,-599.609375,25.390625,0.0
97969.304212791,38.0859375,-94.23828125,-628.90625,18.5546875,0.0
97969.308119041,213.8671875,-90.8203125,-655.2734375,-4.8828125,0.0
97969.312025291,262.6953125,-91.796875,-676.26953125,-19.04296875,0.0
97969.315191375,111.81640625,-101.5625,-700.68359375,18.5546875,0.0
97969.319097625,-4.39453125,-102.05078125,-729.00390625,39.0625,0.0
97969.323003875,169.921875,-88.37890625,-740.72265625,13.671875,0.0
97969.326910125,268.06640625,-89.35546875,-751.46484375,-9.27734375,0.0
97969.330816375,183.10546875,-98.6328125,-775.390625,14.6484375,0.0
97969.334722625,-8.7890625,-106.4453125,-795.41015625,25.87890625,0.0
97969.338628875,85.44921875,-106.4453125,-800.29296875,11.23046875,0.0
97969.342535125,223.14453125,-98.14453125,-805.6640625,6.8359375,0.0
97969.346441375,181.15234375,-103.515625,-822.75390625,6.8359375,0.0
97969.350347625,20.99609375,-97.65625,-841.30859375,25.390625,0.0
97969.354253875,35.15625,-94.23828125,-846.19140625,6.8359375,0.0
97969.358160125,197.75390625,-92.28515625,-853.02734375,-2.9296875,0.0
97969.37898125,189.453125,-77.1484375,-867.67578125,10.7421875,0.0
97969.3828875,48.828125,-87.890625,-879.8828125,23.4375,0.0
97969.38679375,5.859375,-87.40234375,-891.6015625,12.6953125,0.0
97969.3907,149.90234375,-73.2421875,-905.2734375,-21.97265625,0.0
97969.39460625,189.453125,-76.66015625,-915.0390625,-23.4375,0.0
97969.3985125,77.1484375,-82.03125,-923.33984375,-0.48828125,0.0
97969.40241875,-41.9921875,-69.82421875,-936.03515625,1.953125,0.0
97969.406325,82.03125,-71.77734375,-944.3359375,-11.71875,0.0
97969.41023125,160.64453125,-73.73046875,-948.2421875,0.48828125,0.0
97969.4141375,89.35546875,-77.63671875,-957.51953125,6.8359375,0.0
97969.41804375,-51.7578125,-71.2890625,-971.19140625,-11.23046875,0.0
97969.42195,13.671875,-79.58984375,-970.21484375,-12.6953125,0.0
97969.400757458,142.08984375,-90.8203125,-970.703125,-19.04296875,0.0
97969.404663708,124.0234375,-85.9375,-976.5625,-25.390625,0.0
97969.408569958,-26.85546875,-82.51953125,-979.98046875,-9.765625,0.0
97969.412476208,-36.62109375,-85.44921875,-984.86328125,-12.6953125,0.0
97969.416382458,98.6328125,-87.40234375,-988.28125,-35.64453125,0.0
97969.420288708,109.375,-79.1015625,-991.69921875,-35.64453125,0.0
97969.424194958,-22.94921875,-81.0546875,-993.65234375,-5.859375,0.0
97969.428101208,-84.47265625,-82.03125,-994.62890625,-1.46484375,0.0
97969.432007458,40.52734375,-80.078125,-996.09375,-23.92578125,0.0
97969.435913708,96.6796875,-67.3828125,-995.60546875,-2.44140625,0.0
97969.439819958,33.69140625,-64.453125,-995.1171875,5.37109375,0.0
97969.443726208,-81.54296875,-69.82421875,-995.60546875,-0.48828125,0.0
97969.446637833,16.6015625,-68.359375,-993.1640625,-6.8359375,0.0
97969.450544083,119.140625,-59.5703125,-996.09375,-7.8125,0.0
97969.454450333,76.171875,-56.15234375,-997.0703125,6.34765625,0.0
97969.458356583,-70.80078125,-65.91796875,-998.046875,-3.41796875,0.0
97969.462262833,-24.4140625,-62.01171875,-995.60546875,-5.859375,0.0
97969.466169083,99.609375,-61.03515625,-994.62890625,-5.859375,0.0
97969.470075333,84.47265625,-55.6640625,-997.0703125,-1.46484375,0.0
97969.473981583,-60.546875,-55.6640625,-995.60546875,-3.90625,0.0
97969.477887833,-76.171875,-79.1015625,-992.67578125,-4.39453125,0.0
97969.481794083,75.68359375,-88.8671875,-975.09765625,-31.73828125,0.0
97969.485700333,80.56640625,-71.2890625,-893.5546875,-103.515625,0.0
97969.489606583,-100.5859375,-36.62109375,-790.0390625,-191.40625,0.0
97969.494067291,-253.41796875,-20.01953125,-689.453125,-338.37890625,0.0
97969.497973541,-166.50390625,-37.59765625,-608.88671875,-444.3359375,0.0
97969.501879791,-99.609375,-69.82421875,-476.5625,-472.65625,0.0
97969.505786041,-172.36328125,-95.703125,-333.0078125,-503.90625,0.0
97969.509692291,-305.17578125,-118.1640625,-187.5,-587.40234375,0.0
97969.513598541,-215.8203125,-143.06640625,-29.296875,-687.5,0.0
97969.517504791,-129.39453125,-172.8515625,98.6328125,-752.44140625,0.0
97969.521411041,-158.203125,-203.61328125,114.74609375,-746.09375,0.0
97969.525317291,-293.45703125,-220.703125,0.0,-729.00390625,0.0
97969.529223541,-229.00390625,-232.91015625,-157.2265625,-745.60546875,0.0
97969.533129791,-104.00390625,-250.9765625,-395.01953125,-707.51953125,0.0
97969.537036041,-662.109375,-266.11328125,-581.0546875,-681.640625,0.0
97969.541833083,-1000.0,-279.78515625,-694.82421875,-774.4140625,0.0
97969.545739333,-978.02734375,67.3828125,-879.39453125,-848.6328125,0.0
97969.549645583,-999.0234375,816.89453125,-998.53515625,-807.6171875,0.0
97969.553551833,-1000.0,-996.58203125,-999.0234375,-618.1640625,0.0
97969.557458083,-1000.0,936.5234375,-998.53515625,-437.01171875,0.0
97969.561364333,-1000.0,973.14453125,-1000.0,-378.90625,0.0
97969.565270583,-1000.0,956.0546875,-1000.0,-285.64453125,0.0
97969.569176833,-1000.0,957.03125,-1000.0,-191.89453125,0.0
97969.573083083,-1000.0,817.3828125,-1000.0,-143.5546875,0.0
97969.576989333,-1000.0,354.4921875,-1000.0,-86.42578125,0.0
97969.580895583,-1000.0,30.76171875,-1000.0,-36.62109375,0.0
97969.584801833,-1000.0,-18.5546875,-1000.0,41.9921875,0.0
97969.590703625,-1000.0,-101.07421875,-1000.0,92.7734375,0.0
97969.594609875,-1000.0,-257.8125,-1000.0,122.55859375,0.0
97969.598516125,-1000.0,-440.4296875,-1000.0,181.15234375,0.0
97969.602422375,-1000.0,-668.9453125,-1000.0,158.69140625,0.0
97969.606328625,-986.328125,-852.5390625,-1000.0,121.09375,0.0
97969.610234875,-1000.0,-939.453125,-1000.0,166.9921875,0.0
97969.614141125,-870.60546875,-980.46875,-1000.0,284.1796875,0.0
97969.618047375,-428.7109375,-978.02734375,-1000.0,404.296875,0.0
97969.621953625,-157.71484375,-917.96875,-1000.0,494.62890625,0.0
97969.625859875,-164.0625,-805.6640625,-1000.0,598.6328125,0.0
97969.629766125,-195.80078125,-698.73046875,-1000.0,683.10546875,0.0
97969.633672375,31.73828125,-627.44140625,-1000.0,704.58984375,0.0
97969.636317625,192.3828125,-584.47265625,-1000.0,655.2734375,0.0
97969.640223875,220.21484375,-541.015625,-1000.0,592.7734375,0.0
97969.644130125,234.375,-481.93359375,-1000.0,519.04296875,0.0
97969.648036375,480.95703125,-443.359375,-1000.0,451.171875,0.0
97969.651942625,784.66796875,-406.73828125,-1000.0,417.48046875,0.0
97969.655848875,898.92578125,-370.1171875,-1000.0,388.671875,0.0
97969.659755125,878.41796875,-342.28515625,-1000.0,359.86328125,0.0
97969.663661375,913.57421875,-195.80078125,-1000.0,335.9375,0.0
97969.667567625,970.703125,41.015625,-1000.0,319.3359375,0.0
97969.671473875,959.47265625,154.78515625,-1000.0,290.0390625,0.0
97969.675380125,600.09765625,216.30859375,-1000.0,281.25,0.0
97969.679286375,128.90625,358.3984375,-1000.0,250.48828125,0.0
97969.682551166,-94.7265625,523.92578125,-1000.0,222.16796875,0.0
97969.686457416,-302.24609375,746.09375,-1000.0,233.3984375,0.0
97969.690363666,-513.18359375,944.3359375,-1000.0,231.4453125,0.0
97969.694269916,-645.99609375,968.75,-1000.0,229.98046875,0.0
97969.698176166,-457.03125,960.9375,-1000.0,186.03515625,0.0
97969.702082416,-176.7578125,967.7734375,-1000.0,160.15625,0.0
97969.705988666,39.55078125,966.30859375,-1000.0,192.87109375,0.0
97969.709894916,141.11328125,965.8203125,-1000.0,216.30859375,0.0
97969.713801166,338.37890625,965.8203125,-1000.0,194.82421875,0.0
97969.717707416,555.6640625,965.8203125,-1000.0,184.5703125,0.0
97969.721613666,645.99609375,965.8203125,-1000.0,190.4296875,0.0
97969.725519916,597.16796875,965.8203125,-1000.0,165.0390625,0.0
97969.728914083,642.08984375,967.7734375,-1000.0,147.94921875,0.0
97969.732820333,865.234375,960.44921875,-1000.0,131.8359375,0.0
97969.736726583,958.49609375,968.75,-1000.0,125.9765625,0.0
97969.740632833,963.8671875,959.47265625,-1000.0,155.76171875,0.0
97969.744539083,963.37890625,766.6015625,-1000.0,153.3203125,0.0
97969.748445333,957.51953125,638.18359375,-1000.0,120.60546875,0.0
97969.752351583,959.47265625,589.84375,-1000.0,123.53515625,0.0
97969.756257833,779.78515625,463.37890625,-1000.0,125.9765625,0.0
97969.760164083,220.703125,425.78125,-1000.0,41.50390625,0.0
97969.764070333,-572.75390625,420.8984375,-1000.0,14.6484375,0.0
97969.767976583,-995.60546875,352.05078125,-1000.0,-15.625,0.0
97969.771882833,-988.28125,127.44140625,-1000.0,-94.7265625,0.0
97969.770184833,-994.62890625,-305.17578125,-1000.0,-130.37109375,0.0
97969.774091083,-1000.0,-466.796875,-1000.0,-137.20703125,0.0
97969.777997333,-1000.0,-323.2421875,-956.0546875,-101.07421875,0.0
97969.781903583,-1000.0,-232.421875,-1000.0,-67.87109375,0.0
97969.785809833,-1000.0,-199.21875,-508.30078125,-113.76953125,0.0
97969.789716083,-1000.0,-202.1484375,765.625,-182.12890625,0.0
97969.793622333,-1000.0,-204.1015625,-987.3046875,-229.00390625,0.0
97969.797528583,-1000.0,-193.84765625,496.09375,-235.3515625,0.0
97969.801434833,-1000.0,-158.203125,-127.9296875,-237.79296875,0.0
97969.805341083,-1000.0,-125.0,-645.5078125,-272.4609375,0.0
97969.809247333,-1000.0,-101.5625,-954.58984375,-289.0625,0.0
97969.813153583,-1000.0,-143.5546875,-1000.0,-290.52734375,0.0
97969.815699458,-1000.0,-257.8125,-992.67578125,-303.22265625,0.0
97969.819605708,-1000.0,-311.5234375,-1000.0,-304.6875,0.0
97969.823511958,-1000.0,-328.61328125,-1000.0,-328.125,0.0
97969.827418208,-1000.0,-362.79296875,-1000.0,-347.16796875,0.0
97969.831324458,-1000.0,-353.02734375,-1000.0,-343.26171875,0.0
97969.835230708,-1000.0,-309.5703125,-1000.0,-346.19140625,0.0
97969.839136958,-1000.0,-280.2734375,-1000.0,-373.53515625,0.0
97969.843043208,-1000.0,-273.92578125,-1000.0,-390.625,0.0
97969.846949458,-1000.0,-254.8828125,-1000.0,-373.046875,0.0
97969.850855708,-1000.0,-191.89453125,-1000.0,-388.18359375,0.0
97969.854761958,-1000.0,-163.0859375,-999.51171875,-385.25390625,0.0
97969.858668208,-1000.0,-189.94140625,-1000.0,-388.671875,0.0
97969.861431541,-1000.0,-161.62109375,-998.53515625,-361.328125,0.0
97969.865337791,-1000.0,-86.42578125,-977.05078125,-282.71484375,0.0
97969.869244041,-999.51171875,-39.0625,-998.046875,-273.92578125,0.0
97969.873150291,-1000.0,23.92578125,-963.8671875,-239.2578125,0.0
97969.877056541,-998.53515625,60.546875,-842.7734375,-210.44921875,0.0
97969.880962791,-981.93359375,117.67578125,-668.9453125,-215.8203125,0.0
97969.884869041,-1000.0,206.0546875,-385.7421875,-222.16796875,0.0
97969.888775291,-948.73046875,282.71484375,-81.54296875,-203.125,0.0
97969.892681541,-776.85546875,354.4921875,134.27734375,-162.59765625,0.0
97969.896587791,-672.8515625,437.98828125,54.6875,-140.13671875,0.0
97969.900494041,-745.1171875,507.8125,-366.2109375,-129.8828125,0.0
97969.904400291,-676.26953125,556.15234375,-874.0234375,-125.0,0.0
97969.907008791,-484.86328125,609.375,-1000.0,-108.88671875,0.0
97969.910915041,-390.625,669.43359375,-984.375,-86.42578125,0.0
97969.914821291,-415.52734375,712.890625,-1000.0,-81.54296875,0.0
97969.918727541,-393.06640625,745.60546875,-1000.0,-99.12109375,0.0
97969.922633791,-117.67578125,765.625,-1000.0,-128.90625,0.0
97969.926540041,118.65234375,787.59765625,-1000.0,-143.5546875,0.0
97969.930446291,176.26953125,812.5,-1000.0,-135.7421875,0.0
97969.934352541,177.24609375,850.09765625,-1000.0,-138.671875,0.0
97969.938258791,414.0625,885.7421875,-1000.0,-175.78125,0.0
97969.942165041,618.1640625,883.30078125,-1000.0,-174.8046875,0.0
97969.946071291,689.453125,873.046875,-1000.0,-136.23046875,0.0
97969.949977541,692.87109375,852.5390625,-1000.0,-107.91015625,0.0
97969.977621833,860.83984375,828.125,-1000.0,-93.75,0.0
97969.981528083,983.3984375,806.15234375,-1000.0,-75.68359375,0.0
97969.985434333,956.54296875,746.09375,-1000.0,-42.48046875,0.0
97969.989340583,965.8203125,663.0859375,-1000.0,-3.41796875,0.0
97969.993246833,965.8203125,603.02734375,-1000.0,15.625,0.0
97969.997153083,965.8203125,558.59375,-1000.0,24.90234375,0.0
97970.001059333,965.33203125,529.78515625,-1000.0,40.0390625,0.0
97970.004965583,965.33203125,512.6953125,-1000.0,79.1015625,0.0
97970.008871833,965.8203125,496.09375,-1000.0,129.8828125,0.0
97970.012778083,970.703125,481.4453125,-1000.0,151.85546875,0.0
97970.016684333,947.265625,468.26171875,-1000.0,200.1953125,0.0
97970.020590583,976.5625,448.73046875,-1000.0,262.6953125,0.0
97970.018668291,874.51171875,432.12890625,-1000.0,300.78125,0.0
97970.022574541,243.1640625,397.4609375,-1000.0,333.984375,0.0
97970.026480791,-425.29296875,334.9609375,-1000.0,362.3046875,0.0
97970.030387041,-836.42578125,266.11328125,-1000.0,414.0625,0.0
97970.034293291,-997.55859375,177.24609375,-1000.0,445.80078125,0.0
97970.038199541,-994.62890625,41.015625,-1000.0,442.3828125,0.0
97970.042105791,-1000.0,-66.89453125,-1000.0,450.1953125,0.0
97970.046012041,-991.2109375,-97.16796875,-1000.0,479.98046875,0.0
97970.049918291,-1000.0,-62.01171875,-1000.0,512.20703125,0.0
97970.053824541,-952.63671875,80.078125,-1000.0,513.671875,0.0
97970.057730791,-636.23046875,239.2578125,-1000.0,493.1640625,0.0
97970.061637041,-302.24609375,294.43359375,-1000.0,498.046875,0.0
97970.065625958,-44.921875,327.1484375,-1000.0,500.48828125,0.0
97970.069532208,238.28125,367.67578125,-1000.0,510.7421875,0.0
97970.073438458,674.8046875,425.78125,-1000.0,542.48046875,0.0
97970.077344708,946.2890625,476.07421875,-1000.0,562.5,0.0
97970.081250958,961.9140625,490.234375,-1000.0,591.30859375,0.0
97970.085157208,960.9375,503.90625,-1000.0,595.21484375,0.0
97970.089063458,967.28515625,511.71875,-1000.0,554.6875,0.0
97970.092969708,965.8203125,521.484375,-1000.0,515.625,0.0
97970.096875958,965.33203125,567.3828125,-1000.0,516.11328125,0.0
97970.100782208,965.33203125,590.8203125,-1000.0,532.71484375,0.0
97970.104688458,965.33203125,585.9375,-1000.0,497.0703125,0.0
97970.108594708,965.33203125,577.63671875,-1000.0,457.03125,0.0
97970.113527208,965.33203125,531.73828125,-1000.0,472.16796875,0.0
97970.117433458,965.8203125,392.08984375,-1000.0,449.70703125,0.0
97970.121339708,965.33203125,304.6875,-1000.0,391.11328125,0.0
97970.125245958,965.33203125,297.36328125,-1000.0,364.74609375,0.0
97970.129152208,965.33203125,286.1328125,-1000.0,370.1171875,0.0
97970.133058458,965.33203125,267.08984375,-1000.0,361.328125,0.0
97970.136964708,965.8203125,256.34765625,-1000.0,318.359375,0.0
97970.140870958,965.33203125,255.37109375,-1000.0,286.62109375,0.0
97970.144777208,965.8203125,253.90625,-1000.0,276.85546875,0.0
97970.148683458,965.33203125,255.859375,-1000.0,259.765625,0.0
97970.152589708,965.33203125,276.85546875,-1000.0,257.8125,0.0
97970.156495958,965.33203125,285.64453125,-1000.0,252.44140625,0.0
97970.162389125,965.33203125,292.96875,-1000.0,238.76953125,0.0
97970.166295375,965.33203125,306.15234375,-1000.0,233.88671875,0.0
97970.170201625,965.33203125,300.29296875,-1000.0,229.00390625,0.0
97970.174107875,965.8203125,307.6171875,-1000.0,198.73046875,0.0
97970.178014125,965.33203125,333.984375,-1000.0,185.05859375,0.0
97970.181920375,965.33203125,343.75,-1000.0,190.4296875,0.0
97970.185826625,965.33203125,332.03125,-1000.0,187.98828125,0.0
97970.189732875,965.33203125,315.91796875,-1000.0,180.17578125,0.0
97970.193639125,965.33203125,315.91796875,-1000.0,162.109375,0.0
97970.197545375,965.33203125,316.89453125,-1000.0,135.25390625,0.0
97970.201451625,965.33203125,314.94140625,-1000.0,135.25390625,0.0
97970.205357875,965.8203125,307.12890625,-1000.0,148.92578125,0.0
97970.225951375,965.33203125,294.43359375,-1000.0,154.78515625,0.0
97970.229857625,965.33203125,283.203125,-993.65234375,161.62109375,0.0
97970.218733458,965.8203125,257.8125,-1000.0,166.015625,0.0
97970.222639708,963.8671875,222.65625,-940.4296875,169.43359375,0.0
97970.226545958,964.35546875,204.1015625,-697.75390625,150.390625,0.0
97970.230452208,965.8203125,237.3046875,-432.6171875,166.50390625,0.0
97970.234358458,965.33203125,287.109375,-106.4453125,238.76953125,0.0
97970.238264708,965.33203125,333.49609375,214.84375,291.015625,0.0
97970.242170958,965.33203125,392.08984375,321.77734375,324.70703125,0.0
97970.246077208,965.33203125,423.828125,265.13671875,324.21875,0.0
97970.249983458,965.33203125,432.6171875,154.78515625,315.4296875,0.0
97970.253889708,965.33203125,454.58984375,33.69140625,312.98828125,0.0
97970.258232583,965.33203125,474.12109375,-73.73046875,325.1953125,0.0
97970.262138833,965.33203125,474.12109375,-158.69140625,303.22265625,0.0
97970.266045083,965.33203125,461.42578125,-244.140625,273.92578125,0.0
97970.269951333,965.33203125,509.27734375,-269.04296875,332.03125,0.0
97970.273857583,965.33203125,605.46875,-172.36328125,422.36328125,0.0
97970.277763833,964.84375,631.34765625,-70.3125,432.12890625,0.0
97970.281670083,964.84375,618.65234375,-76.66015625,420.8984375,0.0
97970.285576333,966.796875,600.5859375,-156.25,443.84765625,0.0
97970.289482583,953.125,575.1953125,-264.6484375,441.89453125,0.0
97970.293388833,955.078125,545.8984375,-386.71875,390.13671875,0.0
97970.297295083,963.8671875,524.4140625,-472.65625,367.1875,0.0
97970.301201333,977.5390625,505.859375,-501.46484375,360.3515625,0.0
97970.3018185,876.953125,485.83984375,-537.109375,344.23828125,0.0
97970.30572475,826.171875,455.078125,-591.796875,334.9609375,0.0
97970.309631,944.82421875,431.15234375,-648.4375,306.640625,0.0
97970.31353725,990.234375,435.546875,-701.66015625,301.7578125,0.0
97970.3174435,871.09375,424.31640625,-758.30078125,310.546875,0.0
97970.32134975,736.328125,419.43359375,-863.28125,299.8046875,0.0
97970.32693675,878.41796875,423.828125,-982.421875,274.90234375,0.0
97970.330843,972.65625,416.015625,-1000.0,276.3671875,0.0
97970.33474925,860.83984375,409.1796875,-996.58203125,287.59765625,0.0
97970.3386555,660.15625,388.671875,-1000.0,269.04296875,0.0
97970.34256175,765.625,376.953125,-1000.0,225.5859375,0.0
97970.346468,894.04296875,376.953125,-1000.0,191.89453125,0.0
97970.323789041,821.77734375,311.5234375,-1000.0,186.5234375,0.0
97970.327695291,591.796875,237.79296875,-1000.0,177.734375,0.0
97970.331601541,582.03125,219.7265625,-1000.0,141.6015625,0.0
97970.335507791,735.83984375,224.12109375,-1000.0,136.23046875,0.0
97970.339414041,726.07421875,228.02734375,-1000.0,134.27734375,0.0
97970.343320291,527.83203125,219.7265625,-1000.0,115.72265625,0.0
97970.347226541,450.68359375,220.21484375,-1000.0,107.91015625,0.0
97970.351132791,624.0234375,229.00390625,-1000.0,94.7265625,0.0
97970.355039041,668.45703125,225.5859375,-1000.0,102.05078125,0.0
97970.358945291,518.5546875,216.796875,-1000.0,100.5859375,0.0
97970.362851541,380.859375,208.0078125,-1000.0,83.49609375,0.0
97970.366757791,547.8515625,203.61328125,-1000.0,74.21875,0.0
97970.391252083,644.53125,194.82421875,-1000.0,87.40234375,0.0
97970.395158333,538.57421875,183.59375,-1000.0,95.703125,0.0
97970.399064583,342.28515625,178.22265625,-1000.0,54.6875,0.0
97970.402970833,447.265625,162.109375,-1000.0,0.48828125,0.0
97970.406877083,602.5390625,155.76171875,-1000.0,-1.46484375,0.0
97970.410783333,549.31640625,152.34375,-1000.0,32.71484375,0.0
97970.414689583,341.796875,141.6015625,-1000.0,58.59375,0.0
97970.418595833,357.91015625,125.9765625,-1000.0,43.9453125,0.0
97970.422502083,540.52734375,107.91015625,-1000.0,23.4375,0.0
97970.426408333,542.96875,98.6328125,-1000.0,33.69140625,0.0
97970.430314583,362.79296875,87.40234375,-1000.0,33.203125,0.0
97970.434220833,284.66796875,71.77734375,-1000.0,23.92578125,0.0
97970.438933291,466.796875,62.5,-1000.0,5.37109375,0.0
97970.442839541,506.34765625,47.36328125,-1000.0,3.90625,0.0
97970.446745791,352.05078125,12.20703125,-1000.0,23.4375,0.0
97970.450652041,198.2421875,-10.25390625,-1000.0,24.90234375,0.0
97970.454558291,341.796875,-12.6953125,-1000.0,19.53125,0.0
97970.458464541,451.66015625,-5.37109375,-1000.0,25.390625,0.0
97970.462370791,364.2578125,-0.9765625,-1000.0,17.08984375,0.0
97970.466277041,152.83203125,-3.41796875,-1000.0,5.859375,0.0
97970.470183291,228.02734375,0.9765625,-1000.0,-3.41796875,0.0
97970.474089541,397.4609375,-5.37109375,-1000.0,-2.9296875,0.0
97970.477995791,355.46875,-2.9296875,-1000.0,6.34765625,0.0
97970.481902041,152.83203125,4.39453125,-1000.0,8.30078125,0.0
97970.487065166,136.71875,3.41796875,-1000.0,-17.578125,0.0
97970.490971416,337.890625,8.30078125,-1000.0,-17.08984375,0.0
97970.494877666,375.48828125,17.08984375,-1000.0,3.41796875,0.0
97970.498783916,195.80078125,16.11328125,-1000.0,4.8828125,0.0
97970.502690166,90.8203125,9.27734375,-1000.0,2.44140625,0.0
97970.506596416,266.11328125,10.25390625,-1000.0,2.9296875,0.0
97970.510502666,345.21484375,19.04296875,-1000.0,16.11328125,0.0
97970.514408916,230.46875,20.01953125,-1000.0,3.41796875,0.0
97970.518315166,52.734375,19.04296875,-1000.0,-9.765625,0.0
97970.522221416,203.125,19.53125,-1000.0,-25.390625,0.0
97970.526127666,332.51953125,20.99609375,-1000.0,-16.6015625,0.0
97970.530033916,247.0703125,21.97265625,-1000.0,18.06640625,0.0
97970.530736416,40.52734375,19.53125,-1000.0,23.92578125,0.0
97970.534642666,94.7265625,24.4140625,-1000.0,-6.34765625,0.0
97970.538548916,281.25,20.5078125,-1000.0,-23.92578125,0.0
97970.542455166,266.11328125,8.7890625,-1000.0,-12.20703125,0.0
97970.546361416,76.171875,9.27734375,-1000.0,14.6484375,0.0
97970.550267666,39.0625,7.8125,-1000.0,-3.41796875,0.0
97970.554173916,226.07421875,8.30078125,-1000.0,-32.2265625,0.0
97970.558080166,276.85546875,7.32421875,-1000.0,-14.16015625,0.0
97970.561986416,124.51171875,1.953125,-1000.0,3.41796875,0.0
97970.565892666,-3.90625,-6.34765625,-1000.0,-1.953125,0.0
97970.569798916,191.89453125,-13.18359375,-1000.0,-15.13671875,0.0
97970.573705166,311.03515625,-18.06640625,-1000.0,-1.46484375,0.0
97970.591595916,196.2890625,-16.6015625,-1000.0,-1.953125,0.0
97970.595502166,13.18359375,-20.5078125,-1000.0,-25.390625,0.0
97970.599408416,140.625,-26.85546875,-1000.0,-35.64453125,0.0
97970.603314666,288.0859375,-22.4609375,-1000.0,-14.16015625,0.0
97970.607220916,222.65625,-12.6953125,-1000.0,-2.44140625,0.0
97970.611127166,37.109375,-12.20703125,-1000.0,-26.3671875,0.0
97970.615033416,98.14453125,-12.6953125,-1000.0,-45.41015625,0.0
97970.618939666,250.48828125,-13.18359375,-1000.0,-43.9453125,0.0
97970.629697333,230.95703125,-13.671875,-1000.0,-32.2265625,0.0
97970.633603583,68.84765625,-12.20703125,-1000.0,-21.484375,0.0
97970.637509833,15.13671875,-9.765625,-1000.0,-31.73828125,0.0
97970.641416083,193.84765625,-8.30078125,-1000.0,-44.43359375,0.0
97970.621474791,244.140625,-13.18359375,-1000.0,-36.62109375,0.0
97970.625381041,88.8671875,-22.4609375,-1000.0,-32.2265625,0.0
97970.629287291,-44.921875,-33.69140625,-1000.0,-32.2265625,0.0
97970.633193541,110.3515625,-35.64453125,-1000.0,-48.828125,0.0
97970.637099791,215.33203125,-32.71484375,-1000.0,-48.828125,0.0
97970.641006041,122.0703125,-40.0390625,-1000.0,-44.43359375,0.0
97970.644912291,-73.73046875,-51.7578125,-1000.0,-44.43359375,0.0
97970.648818541,42.48046875,-61.03515625,-1000.0,-49.8046875,0.0
97970.652724791,209.47265625,-56.15234375,-1000.0,-62.98828125,0.0
97970.656631041,180.17578125,-43.9453125,-1000.0,-21.484375,0.0
97970.660537291,-10.7421875,-40.0390625,-1000.0,2.44140625,0.0
97970.664443541,2.9296875,-37.59765625,-1000.0,-17.08984375,0.0
97970.663282,208.49609375,-36.62109375,-1000.0,-20.5078125,0.0
97970.66718825,221.6796875,-39.0625,-1000.0,0.0,0.0
97970.6710945,35.15625,-44.43359375,-1000.0,5.859375,0.0
97970.67500075,-23.4375,-49.31640625,-1000.0,-14.16015625,0.0
97970.678907,172.36328125,-44.43359375,-1000.0,-46.875,0.0
97970.68281325,229.98046875,-32.71484375,-1000.0,-26.3671875,0.0
97970.6867195,95.703125,-31.73828125,-1000.0,-2.9296875,0.0
97970.69062575,-46.38671875,-37.109375,-1000.0,-13.671875,0.0
97970.694532,116.2109375,-33.203125,-1000.0,-32.2265625,0.0
97970.69843825,237.3046875,-37.109375,-1000.0,-15.625,0.0
97970.7023445,167.48046875,-51.26953125,-1000.0,-4.8828125,0.0
97970.70625075,-27.83203125,-45.8984375,-1000.0,-22.94921875,0.0
97970.708699041,52.24609375,-24.90234375,-1000.0,-22.94921875,0.0
97970.712605291,225.09765625,-38.0859375,-1000.0,-13.671875,0.0
97970.716511541,189.453125,-57.6171875,-1000.0,-12.20703125,0.0
97970.720417791,-0.9765625,-56.640625,-1000.0,-9.27734375,0.0
97970.724324041,-1.953125,-55.6640625,-1000.0,-26.85546875,0.0
97970.728230291,194.3359375,-49.8046875,-1000.0,-33.203125,0.0
97970.732136541,204.1015625,-50.78125,-1000.0,-12.20703125,0.0
97970.736042791,23.4375,-47.36328125,-1000.0,3.90625,0.0
97970.739949041,-70.3125,-42.48046875,-1000.0,-7.8125,0.0
97970.743855291,101.07421875,-46.38671875,-1000.0,-18.06640625,0.0
97970.747761541,175.78125,-50.29296875,-1000.0,-14.16015625,0.0
97970.751667791,59.5703125,-43.9453125,-1000.0,-1.46484375,0.0
97970.799737916,-103.02734375,-38.0859375,-1000.0,-6.34765625,0.0
97970.785853625,28.3203125,-40.0390625,-1000.0,-39.0625,0.0
97970.789759875,145.01953125,-39.55078125,-1000.0,-42.96875,0.0
97970.793666125,77.63671875,-36.62109375,-1000.0,-25.87890625,0.0
97970.797572375,-118.65234375,-41.015625,-1000.0,-29.296875,0.0
97970.801478625,-67.3828125,-52.734375,-1000.0,-35.15625,0.0
97970.805384875,96.6796875,-57.12890625,-1000.0,-29.296875,0.0
97970.809291125,90.33203125,-30.76171875,-1000.0,-43.45703125,0.0
97970.813197375,-95.21484375,14.6484375,-1000.0,-49.8046875,0.0
97970.817103625,-124.0234375,34.1796875,-1000.0,-41.9921875,0.0
97970.821009875,90.8203125,40.0390625,-1000.0,-39.0625,0.0
97970.824916125,122.55859375,43.9453125,-1000.0,-41.50390625,0.0
97970.845011083,-45.41015625,51.26953125,-1000.0,-58.59375,0.0
97970.827042625,-146.484375,63.4765625,-1000.0,-80.56640625,0.0
97970.830948875,36.62109375,82.03125,-1000.0,-96.6796875,0.0
97970.834855125,132.8125,101.5625,-1000.0,-67.3828125,0.0
97970.838761375,18.06640625,93.26171875,-1000.0,-33.69140625,0.0
97970.842667625,-135.7421875,76.66015625,-1000.0,-43.45703125,0.0
97970.846573875,0.0,66.40625,-1000.0,-57.12890625,0.0
97970.850480125,142.08984375,50.29296875,-1000.0,-49.31640625,0.0
97970.854386375,82.03125,32.71484375,-1000.0,-48.828125,0.0
97970.858292625,-132.32421875,9.765625,-1000.0,-60.05859375,0.0
97970.862198875,-92.7734375,-8.7890625,-1000.0,-63.96484375,0.0
97970.866105125,105.95703125,-22.94921875,-1000.0,-41.9921875,0.0
97970.866606791,117.1875,-31.25,-1000.0,-19.53125,0.0
97970.870513041,-55.6640625,-34.66796875,-1000.0,-17.578125,0.0
97970.874419291,-83.0078125,-48.828125,-1000.0,-31.25,0.0
97970.878325541,121.09375,-58.10546875,-1000.0,-63.4765625,0.0
97970.882231791,167.48046875,-63.4765625,-1000.0,-51.26953125,0.0
97970.886138041,9.27734375,-72.265625,-1000.0,-53.7109375,0.0
97970.890044291,-116.2109375,-69.82421875,-1000.0,-88.8671875,0.0
97970.893950541,64.94140625,-58.59375,-1000.0,-106.93359375,0.0
97970.897856791,182.6171875,-66.40625,-1000.0,-83.49609375,0.0
97970.901763041,73.73046875,-70.80078125,-1000.0,-49.8046875,0.0
97970.905669291,-111.328125,-66.40625,-1000.0,-44.43359375,0.0
97970.909575541,-0.9765625,-84.47265625,-1000.0,-60.546875,0.0
97970.91534175,140.13671875,-104.00390625,-1000.0,-83.49609375,0.0
97970.919248,114.2578125,-112.79296875,-1000.0,-72.75390625,0.0
97970.92315425,-85.9375,-113.76953125,-1000.0,-64.94140625,0.0
97970.9270605,-73.73046875,-104.98046875,-1000.0,-64.94140625,0.0
97970.93096675,122.55859375,-100.5859375,-1000.0,-57.12890625,0.0
97970.934873,136.23046875,-94.7265625,-990.72265625,-49.31640625,0.0
97970.93877925,-54.6875,-83.0078125,-985.3515625,-51.7578125,0.0
97970.9426855,-114.74609375,-83.0078125,-995.60546875,-42.96875,0.0
97970.94659175,74.21875,-79.58984375,-1000.0,-33.69140625,0.0
97970.950498,145.99609375,-51.7578125,-1000.0,-33.203125,0.0
97970.95440425,16.11328125,-32.71484375,-1000.0,-36.1328125,0.0
97970.9583105,-138.18359375,-20.01953125,-1000.0,-40.0390625,0.0
97970.960837291,27.83203125,-2.9296875,-1000.0,-49.31640625,0.0
97970.964743541,166.9921875,7.8125,-1000.0,-35.15625,0.0
97970.968649791,86.9140625,9.27734375,-1000.0,-23.92578125,0.0
97970.972556041,-107.91015625,1.953125,-1000.0,-28.3203125,0.0
97970.976462291,-24.4140625,-3.90625,-1000.0,-47.8515625,0.0
97970.980368541,132.32421875,-7.32421875,-1000.0,-47.8515625,0.0
97970.984274791,99.609375,-7.32421875,-1000.0,-16.6015625,0.0
97970.988181041,-104.98046875,-13.18359375,-1000.0,-4.8828125,0.0
97970.992087291,-111.81640625,-18.5546875,-1000.0,-14.6484375,0.0
97970.995993541,115.234375,-12.20703125,-1000.0,-29.296875,0.0
97970.999899791,142.08984375,-20.01953125,-1000.0,-27.83203125,0.0
97971.003806041,-59.08203125,-38.57421875,-1000.0,-7.8125,0.0
97971.021749166,-149.90234375,-46.38671875,-1000.0,-3.41796875,0.0
97971.025655416,42.96875,-47.8515625,-1000.0,-25.390625,0.0
97971.013770791,123.046875,-44.43359375,-1000.0,-33.203125,0.0
97971.017677041,-1.46484375,-48.33984375,-1000.0,-5.859375,0.0
97971.021583291,-156.25,-60.05859375,-1000.0,-3.41796875,0.0
97971.025489541,-9.765625,-67.3828125,-1000.0,-19.04296875,0.0
97971.029395791,132.8125,-76.171875,-1000.0,-11.23046875,0.0
97971.033302041,68.84765625,-86.9140625,-1000.0,-7.32421875,0.0
97971.037208291,-133.30078125,-87.40234375,-1000.0,-11.71875,0.0
97971.041114541,-36.62109375,-79.58984375,-1000.0,-35.15625,0.0
97971.045020791,142.08984375,-88.37890625,-1000.0,-41.9921875,0.0
97971.048927041,102.5390625,-99.609375,-1000.0,-32.2265625,0.0
97971.053676166,-90.33203125,-109.375,-1000.0,-29.296875,0.0
97971.057582416,-133.30078125,-111.81640625,-1000.0,-36.62109375,0.0
97971.061488666,55.17578125,-119.62890625,-1000.0,-36.62109375,0.0
97971.065394916,93.26171875,-134.765625,-1000.0,-35.15625,0.0
97971.069301166,-53.7109375,-139.6484375,-1000.0,-38.57421875,0.0
97971.073207416,-151.3671875,-141.6015625,-1000.0,-46.38671875,0.0
97971.077113666,25.390625,-144.53125,-1000.0,-49.31640625,0.0
97971.081019916,131.8359375,-137.20703125,-999.51171875,-17.578125,0.0
97971.084926166,8.30078125,-130.859375,-993.65234375,-11.23046875,0.0
97971.088832416,-154.78515625,-135.25390625,-1000.0,-34.66796875,0.0
97971.092738666,151.85546875,31.73828125,-870.60546875,115.234375,0.0
97971.096644916,513.18359375,231.93359375,-603.02734375,311.5234375,0.0
97971.074244791,505.37109375,268.06640625,-490.72265625,342.28515625,0.0
97971.078151041,291.015625,277.83203125,-483.88671875,315.4296875,0.0
97971.082057291,328.125,296.875,-489.2578125,306.640625,0.0
97971.085963541,494.140625,296.38671875,-503.41796875,311.03515625,0.0
97971.089869791,472.16796875,279.78515625,-531.73828125,310.546875,0.0
97971.093776041,264.16015625,255.37109375,-557.12890625,290.52734375,0.0
97971.097682291,202.63671875,244.140625,-581.54296875,259.765625,0.0
97971.101588541,392.08984375,244.140625,-599.12109375,235.3515625,0.0
97971.105494791,433.59375,226.5625,-620.60546875,247.0703125,0.0
97971.109401041,254.39453125,207.03125,-649.90234375,250.9765625,0.0
97971.113307291,104.00390625,189.94140625,-670.8984375,217.28515625,0.0
97971.117213541,251.46484375,176.26953125,-684.08203125,189.94140625,0.0
97971.14187,347.65625,163.0859375,-699.70703125,174.31640625,0.0
97971.14577625,262.6953125,140.625,-717.7734375,168.9453125,0.0
97971.1496825,59.08203125,121.09375,-738.76953125,161.1328125,0.0
97971.15358875,143.5546875,107.91015625,-752.9296875,148.4375,0.0
97971.157495,290.0390625,92.28515625,-760.7421875,160.15625,0.0
97971.16140125,240.72265625,78.125,-764.16015625,160.64453125,0.0
97971.1653075,26.85546875,64.453125,-770.5078125,131.8359375,0.0
97971.16921375,51.7578125,54.6875,-774.4140625,109.86328125,0.0
97971.17312,234.86328125,41.50390625,-783.69140625,77.1484375,0.0
97971.17702625,236.328125,28.80859375,-787.109375,89.35546875,0.0
97971.1809325,65.4296875,20.5078125,-790.0390625,102.05078125,0.0
97971.18483875,-0.48828125,13.671875,-802.24609375,73.73046875,0.0
97971.187479375,183.10546875,4.8828125,-808.59375,85.44921875,0.0
97971.191385625,238.76953125,-1.953125,-810.546875,100.5859375,0.0
97971.195291875,92.28515625,-4.39453125,-815.4296875,82.51953125,0.0
97971.199198125,-38.0859375,-11.23046875,-823.2421875,56.15234375,0.0
97971.203104375,121.58203125,-19.53125,-825.68359375,47.8515625,0.0
97971.207010625,227.05078125,-29.296875,-823.2421875,51.7578125,0.0
97971.210916875,147.4609375,-36.62109375,-817.87109375,70.3125,0.0
97971.214823125,-19.04296875,-41.50390625,-816.40625,67.3828125,0.0
97971.218729375,69.3359375,-43.45703125,-818.84765625,37.59765625,0.0
97971.222635625,210.44921875,-49.8046875,-812.5,30.76171875,0.0
97971.226541875,171.875,-52.734375,-804.6875,44.43359375,0.0
97971.230448125,-35.64453125,-54.19921875,-806.640625,33.203125,0.0
97971.23512325,-44.921875,-58.10546875,-797.36328125,19.04296875,0.0
97971.2390295,143.5546875,-63.96484375,-785.64453125,13.671875,0.0
97971.24293575,166.015625,-75.68359375,-773.4375,20.99609375,0.0
97971.246842,-1.953125,-84.47265625,-751.953125,39.55078125,0.0
97971.25074825,-97.65625,-83.49609375,-707.51953125,15.13671875,0.0
97971.2546545,74.70703125,-89.35546875,-664.0625,-11.71875,0.0
97971.25856075,157.71484375,-100.09765625,-625.0,2.44140625,0.0
97971.262467,17.578125,-104.98046875,-586.42578125,5.37109375,0.0
97971.26637325,-138.671875,-105.46875,-556.15234375,-10.25390625,0.0
97971.2702795,10.25390625,-113.76953125,-509.765625,-12.6953125,0.0
97971.27418575,138.18359375,-118.65234375,-457.03125,-9.765625,0.0
97971.278092,59.5703125,-123.53515625,-417.96875,-14.6484375,0.0
97971.283418375,-132.32421875,-122.55859375,-381.34765625,-16.6015625,0.0
97971.287324625,-66.89453125,-116.69921875,-332.03125,-35.15625,0.0
97971.291230875,94.7265625,-121.09375,-286.62109375,-60.05859375,0.0
97971.295137125,91.796875,-122.55859375,-257.8125,-43.9453125,0.0
97971.299043375,-81.0546875,-126.46484375,-242.1875,-30.2734375,0.0
97971.302949625,-97.16796875,-129.8828125,-225.5859375,-35.15625,0.0
97971.306855875,97.16796875,-122.0703125,-201.171875,-36.62109375,0.0
97971.310762125,118.65234375,-116.2109375,-187.98828125,-27.83203125,0.0
97971.314668375,-55.17578125,-121.09375,-181.640625,-21.484375,0.0
97971.318574625,-158.69140625,-120.1171875,-149.90234375,-41.015625,0.0
97971.322480875,35.15625,-116.2109375,-122.0703125,-58.10546875,0.0
97971.326387125,149.90234375,-119.140625,-94.23828125,-25.87890625,0.0
97971.332832333,39.0625,-121.58203125,-57.6171875,1.953125,0.0
97971.336738583,-151.85546875,-118.65234375,-36.1328125,-20.01953125,0.0
97971.340644833,-20.01953125,-114.2578125,-14.6484375,-51.7578125,0.0
97971.344551083,131.8359375,-113.28125,7.8125,-46.875,0.0
97971.348457333,70.3125,-114.2578125,22.4609375,-24.90234375,0.0
97971.352363583,-93.75,-115.234375,24.4140625,-24.90234375,0.0
97971.356269833,-37.59765625,-112.3046875,29.296875,-31.25,0.0
97971.360176083,133.7890625,-108.3984375,36.62109375,-25.390625,0.0
97971.364082333,132.32421875,-100.09765625,22.4609375,-29.296875,0.0
97971.367988583,-47.8515625,-91.796875,21.484375,-37.59765625,0.0
97971.371894833,-85.44921875,-95.703125,151.85546875,-48.33984375,0.0
97971.375801083,114.74609375,-97.65625,282.2265625,-50.29296875,0.0
97971.377555291,158.203125,-99.12109375,317.3828125,-38.0859375,0.0
97971.381461541,1.46484375,-92.7734375,324.21875,-37.109375,0.0
97971.385367791,-101.07421875,-87.40234375,309.5703125,-62.98828125,0.0
97971.389274041,61.03515625,-91.796875,287.59765625,-82.51953125,0.0
97971.393180291,158.69140625,-88.8671875,260.7421875,-60.546875,0.0
97971.397086541,62.01171875,-87.890625,227.05078125,-42.96875,0.0
97971.400992791,-113.28125,-89.35546875,197.265625,-47.36328125,0.0
97971.404899041,16.6015625,-90.8203125,190.4296875,-46.38671875,0.0
97971.408805291,167.96875,-87.40234375,191.40625,-32.2265625,0.0
97971.412711541,120.1171875,-89.35546875,167.96875,-15.13671875,0.0
97971.416617791,-75.68359375,-100.09765625,142.578125,-31.73828125,0.0
97971.420524041,-69.3359375,-104.4921875,147.4609375,-41.9921875,0.0
97971.426701125,117.1875,-101.07421875,141.11328125,-47.36328125,0.0
97971.430607375,132.8125,-105.46875,104.98046875,-43.9453125,0.0
97971.434513625,-43.45703125,-112.79296875,57.12890625,-28.3203125,0.0
97971.438419875,-116.69921875,-114.74609375,4.8828125,-56.640625,0.0
97971.442326125,79.58984375,-112.79296875,-45.8984375,-72.265625,0.0
97971.446232375,145.5078125,-118.65234375,-98.6328125,-46.875,0.0
97971.450138625,8.30078125,-127.44140625,-149.90234375,-29.296875,0.0
97971.454044875,-130.859375,-124.51171875,-187.01171875,-13.671875,0.0
97971.457951125,29.296875,-114.74609375,-208.984375,-31.73828125,0.0
97971.461857375,151.3671875,-115.234375,-246.09375,-47.36328125,0.0
97971.465763625,73.2421875,-111.328125,-279.296875,-28.3203125,0.0
97971.469669875,-109.86328125,-102.5390625,-302.734375,-20.99609375,0.0
97971.474332791,-9.765625,-97.16796875,-319.82421875,-36.62109375,0.0
97971.478239041,150.87890625,-92.28515625,-343.26171875,-31.73828125,0.0
97971.482145291,115.72265625,-88.37890625,-383.30078125,-15.13671875,0.0
97971.486051541,-86.42578125,-86.9140625,-424.8046875,-22.94921875,0.0
97971.489957791,-81.0546875,-83.0078125,-465.8203125,-35.64453125,0.0
97971.493864041,111.81640625,-87.40234375,-519.04296875,-29.296875,0.0
97971.497770291,124.51171875,-97.65625,-581.54296875,-0.9765625,0.0
97971.501676541,-44.43359375,-97.16796875,-642.578125,-5.37109375,0.0
97971.505582791,-132.8125,-92.28515625,-698.2421875,-22.4609375,0.0
97971.509489041,58.10546875,-91.30859375,-743.65234375,-11.71875,0.0
97971.513395291,129.8828125,-91.30859375,-774.90234375,2.9296875,0.0
97971.517301541,-2.9296875,-87.890625,-786.1328125,10.7421875,0.0
97971.522824916,-151.3671875,-76.66015625,-804.19921875,2.44140625,0.0
97971.526731166,3.90625,-53.7109375,-830.078125,-4.39453125,0.0
97971.530637416,134.765625,-35.15625,-857.91015625,-7.32421875,0.0
97971.534543666,68.84765625,-16.11328125,-885.7421875,2.44140625,0.0
97971.538449916,-114.74609375,-9.27734375,-904.78515625,7.32421875,0.0
97971.542356166,-63.4765625,-17.578125,-927.24609375,-1.953125,0.0
97971.546262416,98.14453125,-13.671875,-949.21875,0.0,0.0
97971.550168666,90.8203125,-22.94921875,-960.9375,4.39453125,0.0
97971.554074916,-96.19140625,-36.1328125,-969.7265625,25.87890625,0.0
97971.557981166,-108.88671875,-34.1796875,-976.07421875,17.578125,0.0
97971.561887416,77.63671875,-34.66796875,-973.6328125,0.48828125,0.0
97971.565793666,117.67578125,-37.59765625,-977.5390625,0.48828125,0.0
97971.569271208,-35.64453125,-43.45703125,-986.81640625,8.30078125,0.0
97971.573177458,-164.0625,-49.31640625,-996.09375,-1.953125,0.0
97971.577083708,20.01953125,-45.8984375,-1000.0,-11.71875,0.0
97971.580989958,115.234375,-39.55078125,-1000.0,-2.44140625,0.0
97971.584896208,-5.859375,-39.0625,-1000.0,4.8828125,0.0
97971.588802458,-173.33984375,-43.9453125,-1000.0,-0.9765625,0.0
97971.592708708,-20.01953125,-41.9921875,-1000.0,-15.625,0.0
97971.596614958,110.3515625,-43.45703125,-1000.0,-4.8828125,0.0
97971.600521208,32.2265625,-50.29296875,-1000.0,4.39453125,0.0
97971.604427458,-155.76171875,-57.12890625,-1000.0,9.27734375,0.0
97971.608333708,-81.54296875,-56.15234375,-1000.0,16.6015625,0.0
97971.612239958,111.328125,-53.22265625,-1000.0,11.23046875,0.0
97971.6187035,93.26171875,-58.10546875,-1000.0,3.90625,0.0
97971.62260975,-100.5859375,-66.40625,-1000.0,7.8125,0.0
97971.626516,-132.8125,-73.2421875,-1000.0,-15.625,0.0
97971.63042225,80.56640625,-78.125,-1000.0,-23.92578125,0.0
97971.6343285,145.99609375,-80.56640625,-1000.0,2.44140625,0.0
97971.63823475,-17.578125,-93.75,-1000.0,9.765625,0.0
97971.642141,-159.1796875,-105.95703125,-1000.0,13.671875,0.0
97971.64604725,16.11328125,-99.12109375,-1000.0,-2.44140625,0.0
97971.6499535,136.23046875,-91.796875,-1000.0,-4.39453125,0.0
97971.65385975,43.9453125,-91.796875,-1000.0,5.37109375,0.0
97971.657766,-134.765625,-83.984375,-1000.0,7.8125,0.0
97971.66167225,-6.8359375,-84.47265625,-1000.0,6.34765625,0.0
97971.681299083,157.2265625,-90.8203125,-1000.0,-4.8828125,0.0
97971.685205333,93.75,-86.9140625,-1000.0,10.25390625,0.0
97971.674613666,-113.28125,-84.47265625,-1000.0,16.11328125,0.0
97971.678519916,-66.89453125,-87.890625,-1000.0,2.44140625,0.0
97971.682426166,118.65234375,-96.19140625,-1000.0,-10.7421875,0.0
97971.686332416,120.1171875,-100.5859375,-1000.0,-20.01953125,0.0
97971.690238666,-53.7109375,-104.00390625,-1000.0,-12.20703125,0.0
97971.694144916,-108.3984375,-110.3515625,-1000.0,-20.01953125,0.0
97971.698051166,65.4296875,-116.69921875,-1000.0,-26.85546875,0.0
97971.701957416,125.0,-118.1640625,-1000.0,-20.01953125,0.0
97971.705863666,-4.39453125,-121.09375,-1000.0,-11.71875,0.0
97971.709769916,-144.53125,-128.90625,-1000.0,-5.37109375,0.0
97971.726742708,11.23046875,-132.32421875,-1000.0,-15.13671875,0.0
97971.730648958,135.7421875,-132.8125,-1000.0,1.953125,0.0
97971.720543625,38.57421875,-136.71875,-1000.0,13.671875,0.0
97971.724449875,-148.4375,-132.8125,-1000.0,-7.32421875,0.0
97971.728356125,-40.0390625,-135.7421875,-1000.0,-38.0859375,0.0
97971.732262375,123.046875,-145.01953125,-1000.0,-46.38671875,0.0
97971.736168625,85.44921875,-145.5078125,-1000.0,-29.296875,0.0
97971.740074875,-128.41796875,-148.92578125,-1000.0,-21.97265625,0.0
97971.743981125,-106.93359375,-152.83203125,-1000.0,-20.99609375,0.0
97971.747887375,97.16796875,-151.85546875,-1000.0,-24.90234375,0.0
97971.751793625,113.76953125,-158.203125,-1000.0,-2.9296875,0.0
97971.755699875,-57.12890625,-158.203125,-1000.0,9.27734375,0.0
97971.760704291,-126.953125,-151.3671875,-1000.0,-22.4609375,0.0
97971.764610541,66.40625,-154.78515625,-1000.0,-38.0859375,0.0
97971.768516791,136.71875,-167.96875,-1000.0,-20.01953125,0.0
97971.772423041,-4.39453125,-171.38671875,-1000.0,11.71875,0.0
97971.776329291,-180.6640625,-169.43359375,-1000.0,-12.6953125,0.0
97971.780235541,-26.85546875,-171.875,-1000.0,-43.9453125,0.0
97971.784141791,117.1875,-170.41015625,-1000.0,-31.25,0.0
97971.788048041,33.203125,-169.43359375,-1000.0,-5.37109375,0.0
97971.791954291,-166.9921875,-168.9453125,-1000.0,-6.34765625,0.0
97971.795860541,-77.1484375,-171.38671875,-1000.0,-22.94921875,0.0
97971.799766791,109.375,-174.8046875,-1000.0,-1.46484375,0.0
97971.803673041,86.9140625,-181.15234375,-1000.0,2.9296875,0.0
97971.781573083,-125.0,-187.5,-1000.0,-25.390625,0.0
97971.785479333,-123.53515625,-189.453125,-1000.0,-24.4140625,0.0
97971.789385583,88.8671875,-184.08203125,-1000.0,-15.13671875,0.0
97971.793291833,123.046875,-178.22265625,-1000.0,-9.765625,0.0
97971.797198083,-45.8984375,-183.10546875,-1000.0,-10.7421875,0.0
97971.801104333,-149.90234375,-186.5234375,-1000.0,-30.2734375,0.0
97971.805010583,47.8515625,-187.01171875,-1000.0,-33.69140625,0.0
97971.808916833,105.46875,-185.546875,-1000.0,-1.46484375,0.0
97971.812823083,-27.83203125,-178.22265625,-1000.0,15.625,0.0
97971.816729333,-170.8984375,-178.7109375,-1000.0,1.953125,0.0
97971.820635583,-25.87890625,-186.03515625,-1000.0,-3.41796875,0.0
97971.824541833,113.76953125,-183.59375,-1000.0,0.9765625,0.0
97971.827682291,51.7578125,-180.6640625,-1000.0,-1.953125,0.0
97971.831588541,-143.06640625,-180.17578125,-1000.0,-25.390625,0.0
97971.835494791,-79.1015625,-181.15234375,-1000.0,-38.0859375,0.0
97971.839401041,100.09765625,-182.6171875,-1000.0,-27.34375,0.0
97971.843307291,82.51953125,-181.640625,-1000.0,-11.23046875,0.0
97971.847213541,-104.98046875,-186.5234375,-1000.0,-14.6484375,0.0
97971.851119791,-131.34765625,-192.87109375,-1000.0,-28.3203125,0.0
97971.855026041,61.5234375,-185.546875,-1000.0,-33.69140625,0.0
97971.858932291,100.09765625,-182.12890625,-1000.0,-19.04296875,0.0
97971.862838541,-63.4765625,-188.96484375,-1000.0,-13.671875,0.0
97971.866744791,-180.6640625,-194.3359375,-1000.0,-32.71484375,0.0
97971.870651041,-8.7890625,-192.3828125,-1000.0,-48.828125,0.0
97971.900579875,107.421875,-193.84765625,-1000.0,-28.3203125,0.0
97971.904486125,17.578125,-193.84765625,-1000.0,-5.37109375,0.0
97971.908392375,-159.1796875,-191.89453125,-1000.0,-6.8359375,0.0
97971.912298625,-32.2265625,-188.4765625,-1000.0,-17.08984375,0.0
97971.916204875,108.3984375,-189.94140625,-1000.0,-29.78515625,0.0
97971.920111125,43.9453125,-193.359375,-1000.0,-16.6015625,0.0
97971.924017375,-157.71484375,-187.5,-1000.0,-3.90625,0.0
97971.927923625,-109.375,-179.19921875,-1000.0,-30.2734375,0.0
97971.931829875,83.49609375,-178.22265625,-1000.0,-47.36328125,0.0
97971.935736125,97.16796875,-180.6640625,-1000.0,-45.41015625,0.0
97971.939642375,-98.6328125,-184.08203125,-1000.0,-37.59765625,0.0
97971.943548625,-158.203125,-184.5703125,-1000.0,-37.109375,0.0
97971.9459515,59.5703125,-187.5,-1000.0,-41.9921875,0.0
97971.94985775,106.93359375,-190.91796875,-1000.0,-17.578125,0.0
97971.953764,-51.26953125,-190.91796875,-1000.0,-1.46484375,0.0
97971.95767025,-171.875,-187.01171875,-1000.0,-22.94921875,0.0
97971.9615765,8.7890625,-184.08203125,-1000.0,-37.109375,0.0
97971.96548275,108.3984375,-190.91796875,-1000.0,-27.83203125,0.0
97971.969389,20.5078125,-192.3828125,-1000.0,-15.13671875,0.0
97971.97329525,-157.2265625,-190.91796875,-1000.0,-27.83203125,0.0
97971.9772015,-54.19921875,-192.3828125,-1000.0,-44.921875,0.0
97971.98110775,113.28125,-192.87109375,-1000.0,-36.1328125,0.0
97971.985014,58.10546875,-186.5234375,-1000.0,-15.625,0.0
97971.98892025,-132.32421875,-187.98828125,-1000.0,-10.7421875,0.0
97971.995728833,-107.421875,-192.87109375,-1000.0,-22.4609375,0.0
97971.999635083,75.68359375,-187.98828125,-1000.0,-37.59765625,0.0
97972.003541333,83.49609375,-189.94140625,-1000.0,-41.9921875,0.0
97972.007447583,-89.84375,-196.2890625,-1000.0,-30.76171875,0.0
97972.011353833,-165.0390625,-194.82421875,-1000.0,-29.78515625,0.0
97972.015260083,17.578125,-193.84765625,-1000.0,-30.76171875,0.0
97972.019166333,91.30859375,-194.82421875,-1000.0,-11.23046875,0.0
97972.023072583,-34.66796875,-195.3125,-1000.0,-9.765625,0.0
97972.026978833,-181.640625,-197.265625,-1000.0,-29.296875,0.0
97972.030885083,-25.390625,-195.3125,-1000.0,-27.83203125,0.0
97972.034791333,123.046875,-192.87109375,-1000.0,-27.83203125,0.0
97972.038697583,62.5,-193.359375,-1000.0,-29.296875,0.0
97972.059704291,-145.5078125,-191.89453125,-1000.0,-18.5546875,0.0
97972.045767958,-64.94140625,-189.453125,-1000.0,-25.390625,0.0
97972.049674208,104.98046875,-188.96484375,-1000.0,-40.0390625,0.0
97972.053580458,67.87109375,-193.359375,-1000.0,-17.08984375,0.0
97972.057486708,-128.41796875,-193.359375,-1000.0,-17.578125,0.0
97972.061392958,-98.6328125,-191.40625,-1000.0,-48.33984375,0.0
97972.065299208,82.51953125,-191.89453125,-1000.0,-50.78125,0.0
97972.069205458,76.66015625,-195.3125,-1000.0,-32.2265625,0.0
97972.073111708,-83.984375,-196.2890625,-1000.0,-33.69140625,0.0
97972.077017958,-174.31640625,-191.89453125,-1000.0,-37.109375,0.0
97972.080924208,18.06640625,-188.96484375,-1000.0,-35.64453125,0.0
97972.084830458,99.609375,-192.3828125,-994.62890625,-33.203125,0.0
97972.088642833,-37.59765625,-192.3828125,-986.81640625,-23.4375,0.0
97972.092549083,-189.453125,-187.5,-980.46875,-25.390625,0.0
97972.096455333,-30.76171875,-182.6171875,-977.05078125,-34.1796875,0.0
97972.100361583,104.4921875,-182.6171875,-975.09765625,-32.71484375,0.0
97972.104267833,36.62109375,-184.5703125,-968.26171875,-11.71875,0.0
97972.108174083,-155.2734375,-187.01171875,-969.7265625,-8.7890625,0.0
97972.112080333,-85.9375,-189.453125,-967.7734375,-42.48046875,0.0
97972.115986583,88.37890625,-193.359375,-964.84375,-39.55078125,0.0
97972.119892833,38.57421875,-195.3125,-963.37890625,1.953125,0.0
97972.123799083,-145.01953125,-191.89453125,-958.49609375,-8.30078125,0.0
97972.127705333,-147.4609375,-191.40625,-953.125,-38.57421875,0.0
97972.131611583,25.390625,-191.89453125,-947.75390625,-42.96875,0.0
97972.108947041,59.5703125,-186.03515625,-939.453125,-31.73828125,0.0
97972.112853291,-95.21484375,-186.5234375,-936.5234375,-21.97265625,0.0
97972.116759541,-200.1953125,-194.3359375,-941.89453125,-32.2265625,0.0
97972.120665791,0.48828125,-191.40625,-939.453125,-30.2734375,0.0
97972.124572041,105.95703125,-186.03515625,-936.5234375,-19.04296875,0.0
97972.128478291,-7.8125,-188.4765625,-939.94140625,-13.671875,0.0
97972.132384541,-168.9453125,-188.96484375,-939.94140625,-12.20703125,0.0
97972.136290791,-50.29296875,-186.5234375,-936.5234375,-27.34375,0.0
97972.140197041,78.125,-181.640625,-928.22265625,-35.15625,0.0
97972.144103291,25.87890625,-176.26953125,-927.24609375,-17.578125,0.0
97972.148009541,-166.015625,-174.8046875,-934.5703125,-10.25390625,0.0
97972.151915791,-125.48828125,-180.17578125,-934.08203125,-33.203125,0.0
97972.154272125,66.89453125,-183.10546875,-921.875,-43.45703125,0.0
97972.158178375,71.2890625,-180.17578125,-918.45703125,-27.83203125,0.0
97972.162084625,-119.140625,-179.19921875,-922.36328125,-11.23046875,0.0
97972.165990875,-165.52734375,-179.19921875,-916.50390625,-13.18359375,0.0
97972.169897125,36.62109375,-175.78125,-908.203125,-38.57421875,0.0
97972.173803375,99.12109375,-177.24609375,-906.25,-42.48046875,0.0
97972.177709625,-49.8046875,-171.38671875,-906.73828125,0.9765625,0.0
97972.181615875,-182.12890625,-166.50390625,-905.2734375,5.859375,0.0
97972.185522125,3.41796875,-164.55078125,-896.484375,-41.50390625,0.0
97972.189428375,102.05078125,-164.0625,-893.06640625,-32.2265625,0.0
97972.193334625,4.8828125,-169.921875,-896.484375,-8.7890625,0.0
97972.197240875,-175.29296875,-175.29296875,-900.390625,-17.578125,0.0
97972.221683333,-70.80078125,-179.6875,-896.97265625,-38.57421875,0.0
97972.225589583,88.8671875,-173.828125,-889.6484375,-35.15625,0.0
97972.229495833,41.50390625,-174.31640625,-886.71875,-20.01953125,0.0
97972.233402083,-157.2265625,-178.22265625,-888.18359375,-23.4375,0.0
97972.237308333,-125.9765625,-172.8515625,-883.7890625,-38.57421875,0.0
97972.241214583,62.98828125,-173.33984375,-877.44140625,-48.33984375,0.0
97972.245120833,66.89453125,-179.6875,-877.44140625,-25.87890625,0.0
97972.249027083,-120.1171875,-176.26953125,-876.953125,-17.08984375,0.0
97972.252933333,-176.7578125,-173.33984375,-875.48828125,-42.96875,0.0
97972.256839583,30.76171875,-178.7109375,-873.53515625,-52.734375,0.0
97972.260745833,103.515625,-182.12890625,-875.9765625,-43.45703125,0.0
97972.264652083,-27.34375,-182.12890625,-875.9765625,-34.66796875,0.0
97972.269224541,-171.875,-176.7578125,-871.09375,-39.0625,0.0
97972.273130791,-14.6484375,-172.8515625,-861.328125,-48.33984375,0.0
97972.277037041,98.14453125,-171.875,-853.515625,-35.64453125,0.0
97972.280943291,23.4375,-172.8515625,-855.46875,-16.6015625,0.0
97972.284849541,-154.296875,-174.31640625,-859.86328125,-19.04296875,0.0
97972.288755791,-58.59375,-179.6875,-859.86328125,-35.15625,0.0
97972.292662041,105.46875,-185.05859375,-857.421875,-26.85546875,0.0
97972.296568291,65.91796875,-187.5,-849.12109375,-1.953125,0.0
97972.300474541,-131.34765625,-185.05859375,-843.75,-12.6953125,0.0
97972.304380791,-131.34765625,-183.59375,-839.84375,-40.52734375,0.0
97972.308287041,52.24609375,-187.01171875,-834.47265625,-52.734375,0.0
97972.312193291,84.9609375,-186.5234375,-829.58984375,-40.0390625,0.0
97972.31376075,-64.94140625,-182.6171875,-829.58984375,-0.9765625,0.0
97972.317667,-159.1796875,-180.6640625,-832.51953125,-10.7421875,0.0
97972.32157325,5.37109375,-174.8046875,-828.125,-46.875,0.0
97972.3254795,84.47265625,-169.921875,-822.265625,-42.48046875,0.0
97972.32938575,-35.15625,-175.29296875,-817.87109375,-33.69140625,0.0
97972.333292,-191.40625,-179.6875,-817.87109375,-38.0859375,0.0
97972.33719825,-31.25,-175.78125,-809.08203125,-43.45703125,0.0
97972.3411045,109.375,-174.8046875,-796.875,-39.0625,0.0
97972.34501075,34.1796875,-173.33984375,-793.9453125,-14.6484375,0.0
97972.348917,-169.43359375,-174.8046875,-794.43359375,-3.90625,0.0
97972.35282325,-84.47265625,-174.31640625,-787.109375,-29.296875,0.0
97972.3567295,99.12109375,-152.34375,-778.3203125,-43.45703125,0.0
97972.4039815,68.84765625,-133.7890625,-778.80859375,-32.71484375,0.0
97972.387349916,-122.55859375,-119.140625,-784.1796875,-38.57421875,0.0
97972.391256166,-132.32421875,-85.44921875,-781.25,-46.875,0.0
97972.395162416,63.96484375,-56.640625,-773.4375,-41.50390625,0.0
97972.399068666,80.56640625,-44.921875,-772.4609375,-38.0859375,0.0
97972.402974916,-69.3359375,-30.76171875,-774.90234375,-33.69140625,0.0
97972.406881166,-159.66796875,-18.5546875,-774.4140625,-35.15625,0.0
97972.410787416,3.90625,-15.625,-768.5546875,-38.57421875,0.0
97972.414693666,92.7734375,-15.13671875,-764.16015625,-37.109375,0.0
97972.418599916,-11.23046875,-16.11328125,-763.671875,-24.90234375,0.0
97972.422506166,-170.41015625,-19.53125,-763.671875,-27.83203125,0.0
97972.426412416,-34.1796875,-21.97265625,-759.27734375,-39.55078125,0.0
97972.406071333,111.328125,-24.4140625,-751.46484375,-34.1796875,0.0
97972.409977583,57.12890625,-29.296875,-750.9765625,-20.5078125,0.0
97972.413883833,-141.6015625,-31.73828125,-754.8828125,-16.11328125,0.0
97972.417790083,-87.890625,-32.71484375,-752.9296875,-31.73828125,0.0
97972.421696333,98.14453125,-35.15625,-749.0234375,-32.2265625,0.0
97972.425602583,82.51953125,-36.1328125,-747.55859375,-27.83203125,0.0
97972.429508833,-105.46875,-32.2265625,-747.0703125,-32.71484375,0.0
97972.433415083,-144.53125,-31.25,-745.1171875,-38.57421875,0.0
97972.437321333,47.8515625,-38.57421875,-735.3515625,-32.71484375,0.0
97972.441227583,84.47265625,-37.109375,-731.4453125,-23.92578125,0.0
97972.445133833,-62.98828125,-39.0625,-738.28125,-26.3671875,0.0
97972.449040083,-183.10546875,-50.78125,-745.1171875,-39.0625,0.0
97972.454174208,-19.04296875,-56.15234375,-737.79296875,-39.0625,0.0
97972.458080458,93.26171875,-56.640625,-728.515625,-25.390625,0.0
97972.461986708,0.9765625,-61.03515625,-731.93359375,-23.4375,0.0
97972.465892958,-179.6875,-66.40625,-738.76953125,-34.1796875,0.0
97972.469799208,-67.87109375,-70.80078125,-733.88671875,-37.59765625,0.0
97972.473705458,89.84375,-77.63671875,-727.05078125,-44.43359375,0.0
97972.477611708,41.50390625,-75.1953125,-725.5859375,-40.52734375,0.0
97972.481517958,-165.52734375,-63.4765625,-729.98046875,-33.69140625,0.0
97972.485424208,-131.8359375,-56.640625,-727.05078125,-42.96875,0.0
97972.489330458,71.77734375,-58.10546875,-716.30859375,-46.875,0.0
97972.493236708,69.82421875,-62.01171875,-715.33203125,-39.55078125,0.0
97972.497142958,-105.46875,-66.40625,-720.21484375,-27.34375,0.0
97972.503107333,-166.50390625,-58.10546875,-717.7734375,-38.57421875,0.0
97972.507013583,23.92578125,-16.11328125,-710.9375,-44.43359375,0.0
97972.510919833,75.1953125,31.25,-705.56640625,-26.85546875,0.0
97972.514826083,-68.84765625,57.12890625,-705.078125,-25.390625,0.0
97972.518732333,-187.98828125,88.37890625,-708.49609375,-41.9921875,0.0
97972.522638583,-12.6953125,118.65234375,-702.1484375,-54.19921875,0.0
97972.526544833,95.703125,121.58203125,-687.01171875,-48.33984375,0.0
97972.530451083,-10.25390625,115.72265625,-681.15234375,-36.62109375,0.0
97972.534357333,-205.078125,130.37109375,-678.7109375,-34.1796875,0.0
97972.538263583,-90.8203125,142.578125,-676.7578125,-44.921875,0.0
97972.542169833,86.42578125,150.390625,-679.19921875,-48.828125,0.0
97972.546076083,41.015625,166.015625,-683.59375,-45.8984375,0.0
97972.5490295,-165.52734375,162.109375,-691.89453125,-44.921875,0.0
97972.55293575,-162.109375,146.97265625,-693.359375,-42.48046875,0.0
97972.556842,38.57421875,137.6953125,-692.3828125,-37.59765625,0.0
97972.56074825,62.5,125.48828125,-692.87109375,-36.62109375,0.0
97972.5646545,-106.93359375,108.3984375,-701.171875,-32.2265625,0.0
97972.56856075,-187.01171875,104.98046875,-703.125,-40.0390625,0.0
97972.572467,-0.48828125,117.67578125,-690.4296875,-48.828125,0.0
97972.57637325,70.80078125,125.48828125,-687.98828125,-35.64453125,0.0
97972.5802795,-36.1328125,142.08984375,-688.96484375,-22.94921875,0.0
97972.58418575,-189.94140625,152.34375,-690.91796875,-22.4609375,0.0
97972.588092,-53.7109375,150.390625,-687.5,-32.2265625,0.0
97972.59199825,82.03125,151.3671875,-683.10546875,-29.296875,0.0
97972.594225916,14.6484375,143.06640625,-659.66796875,-23.92578125,0.0
97972.598132166,-179.6875,133.30078125,-642.578125,-32.2265625,0.0
97972.602038416,-115.72265625,125.48828125,-645.01953125,-37.59765625,0.0
97972.605944666,70.3125,121.09375,-646.484375,-41.50390625,0.0
97972.609850916,59.5703125,121.09375,-649.90234375,-42.48046875,0.0
97972.613757166,-137.6953125,112.79296875,-652.34375,-36.62109375,0.0
97972.617663416,-149.90234375,103.02734375,-652.34375,-41.015625,0.0
97972.621569666,34.1796875,101.07421875,-646.484375,-47.8515625,0.0
97972.625475916,60.05859375,85.44921875,-649.90234375,-36.1328125,0.0
97972.629382166,-89.84375,63.4765625,-659.1796875,-24.4140625,0.0
97972.633288416,-193.359375,57.12890625,-658.69140625,-27.83203125,0.0
97972.637194666,-6.8359375,50.29296875,-655.2734375,-46.875,0.0
97972.640908458,96.19140625,43.9453125,-656.25,-48.33984375,0.0
97972.644814708,-21.484375,38.0859375,-656.25,-36.1328125,0.0
97972.648720958,-200.1953125,32.2265625,-654.78515625,-34.66796875,0.0
97972.652627208,-59.08203125,28.3203125,-648.92578125,-43.45703125,0.0
97972.656533458,94.7265625,20.5078125,-645.01953125,-42.48046875,0.0
97972.660439708,26.3671875,8.30078125,-650.87890625,-23.4375,0.0
97972.664345958,-187.01171875,-6.34765625,-656.25,-14.16015625,0.0
97972.668252208,-133.7890625,-17.578125,-646.97265625,-41.9921875,0.0
97972.672158458,65.4296875,-25.390625,-643.5546875,-48.828125,0.0
97972.676064708,49.8046875,-36.1328125,-650.390625,-37.109375,0.0
97972.679970958,-147.4609375,-48.33984375,-651.3671875,-35.64453125,0.0
97972.683877208,-185.546875,-65.4296875,-647.94921875,-47.8515625,0.0
97972.689836583,4.8828125,-75.1953125,-641.11328125,-53.7109375,0.0
97972.693742833,54.6875,-78.61328125,-644.04296875,-43.45703125,0.0
97972.697649083,-82.51953125,-85.44921875,-645.99609375,-32.71484375,0.0
97972.701555333,-185.546875,-93.75,-641.11328125,-40.0390625,0.0
97972.705461583,-19.04296875,-102.05078125,-638.18359375,-50.29296875,0.0
97972.709367833,77.1484375,-104.98046875,-637.20703125,-41.015625,0.0
97972.713274083,-23.92578125,-100.09765625,-635.25390625,-30.76171875,0.0
97972.717180333,-189.94140625,-96.19140625,-638.18359375,-31.73828125,0.0
97972.721086583,-50.29296875,-106.93359375,-642.08984375,-43.45703125,0.0
97972.724992833,100.09765625,-119.62890625,-638.671875,-36.1328125,0.0
97972.728899083,33.69140625,-117.1875,-635.7421875,-26.85546875,0.0
97972.732805333,-176.7578125,-118.65234375,-643.06640625,-44.43359375,0.0
97972.735913833,-137.6953125,-125.9765625,-646.484375,-58.59375,0.0
97972.739820083,56.640625,-128.90625,-642.08984375,-52.24609375,0.0
97972.743726333,57.12890625,-136.23046875,-639.6484375,-39.0625,0.0
97972.747632583,-125.0,-143.06640625,-645.5078125,-27.34375,0.0
97972.751538833,-180.17578125,-150.87890625,-653.80859375,-41.9921875,0.0
97972.755445083,22.4609375,-158.69140625,-648.92578125,-40.52734375,0.0
97972.759351333,92.7734375,-161.62109375,-640.13671875,-28.3203125,0.0
97972.763257583,-57.12890625,-169.43359375,-638.671875,-31.25,0.0
97972.767163833,-190.4296875,-174.8046875,-642.08984375,-39.0625,0.0
97972.771070083,-1.46484375,-171.875,-634.27734375,-36.62109375,0.0
97972.774976333,109.86328125,-172.36328125,-626.953125,-24.90234375,0.0
97972.778882583,15.625,-180.6640625,-628.41796875,-22.4609375,0.0
97972.781503541,-180.6640625,-187.01171875,-627.44140625,-25.390625,0.0
97972.785409791,-78.61328125,-186.5234375,-619.62890625,-41.015625,0.0
97972.789316041,87.890625,-187.5,-617.67578125,-48.828125,0.0
97972.793222291,47.36328125,-184.5703125,-620.1171875,-33.203125,0.0
97972.797128541,-152.34375,-184.08203125,-630.859375,-24.4140625,0.0
97972.801034791,-137.20703125,-186.5234375,-635.7421875,-41.015625,0.0
97972.804941041,65.4296875,-183.10546875,-625.0,-53.22265625,0.0
97972.808847291,72.265625,-183.59375,-619.140625,-43.9453125,0.0
97972.812753541,-116.2109375,-190.91796875,-617.67578125,-30.76171875,0.0
97972.816659791,-179.6875,-187.98828125,-606.93359375,-44.921875,0.0
97972.820566041,13.671875,-189.94140625,-607.91015625,-56.15234375,0.0
97972.824472291,71.2890625,-195.80078125,-610.3515625,-43.9453125,0.0
97972.830138958,-54.6875,-191.40625,-609.86328125,-44.43359375,0.0
97972.834045208,-194.82421875,-186.03515625,-610.83984375,-45.8984375,0.0
97972.837951458,-38.0859375,-186.5234375,-610.83984375,-47.36328125,0.0
97972.841857708,98.6328125,-188.4765625,-612.3046875,-50.78125,0.0
97972.845763958,28.80859375,-185.546875,-603.515625,-27.34375,0.0
97972.849670208,-170.8984375,-185.05859375,-604.98046875,-33.203125,0.0
97972.853576458,-86.42578125,-184.08203125,-604.98046875,-50.29296875,0.0
97972.857482708,96.6796875,-183.59375,-595.703125,-46.875,0.0
97972.861388958,47.36328125,-189.94140625,-597.65625,-36.1328125,0.0
97972.865295208,-140.13671875,-185.05859375,-594.7265625,-26.3671875,0.0
97972.869201458,-134.765625,-184.5703125,-589.84375,-17.08984375,0.0
97972.873107708,56.640625,-193.359375,-591.30859375,-27.34375,0.0
97972.874615958,93.75,-193.359375,-587.40234375,-38.57421875,0.0
97972.878522208,-76.66015625,-191.40625,-586.9140625,-35.15625,0.0
97972.882428458,-159.1796875,-189.94140625,-585.9375,-40.0390625,0.0
97972.886334708,32.71484375,-191.89453125,-579.1015625,-37.59765625,0.0
97972.890240958,101.5625,-192.3828125,-575.1953125,-17.578125,0.0
97972.894147208,-12.6953125,-192.3828125,-578.61328125,-10.7421875,0.0
97972.898053458,-182.6171875,-190.4296875,-582.03125,-25.87890625,0.0
97972.901959708,-43.9453125,-191.89453125,-579.1015625,-32.2265625,0.0
97972.905865958,101.07421875,-191.40625,-572.75390625,-36.62109375,0.0
97972.909772208,12.20703125,-190.91796875,-573.2421875,-37.109375,0.0
97972.913678458,-184.08203125,-193.359375,-578.125,-30.2734375,0.0
97972.917584708,-107.91015625,-191.40625,-573.73046875,-45.8984375,0.0
97972.920832583,71.2890625,-189.453125,-565.91796875,-50.78125,0.0
97972.924738833,51.26953125,-191.89453125,-563.4765625,-32.2265625,0.0
97972.928645083,-127.44140625,-190.4296875,-567.87109375,-28.3203125,0.0
97972.932551333,-147.94921875,-186.03515625,-564.453125,-45.8984375,0.0
97972.936457583,47.8515625,-181.15234375,-554.19921875,-45.41015625,0.0
97972.940363833,96.6796875,-175.29296875,-555.6640625,-23.4375,0.0
97972.944270083,-60.546875,-179.19921875,-562.98828125,-19.53125,0.0
97972.948176333,-186.03515625,-180.17578125,-560.546875,-30.2734375,0.0
97972.952082583,4.8828125,-166.9921875,-547.8515625,-36.1328125,0.0
97972.955988833,106.4453125,-162.59765625,-547.8515625,-32.2265625,0.0
97972.959895083,-12.20703125,-155.76171875,-552.734375,-23.92578125,0.0
97972.963801333,-183.59375,-145.99609375,-553.22265625,-24.4140625,0.0
97972.965638541,-45.8984375,-144.53125,-546.875,-44.43359375,0.0
97972.969544791,98.6328125,-139.16015625,-546.38671875,-49.8046875,0.0
97972.973451041,42.48046875,-135.7421875,-552.24609375,-35.15625,0.0
97972.977357291,-159.66796875,-132.32421875,-553.7109375,-24.4140625,0.0
97972.981263541,-121.58203125,-131.34765625,-547.8515625,-33.69140625,0.0
97972.985169791,70.80078125,-138.18359375,-544.921875,-40.0390625,0.0
97972.989076041,74.70703125,-137.6953125,-544.921875,-18.5546875,0.0
97972.992982291,-112.79296875,-131.34765625,-543.9453125,-11.71875,0.0
97972.996888541,-175.29296875,-129.8828125,-542.96875,-31.25,0.0
97973.000794791,28.80859375,-131.34765625,-539.0625,-45.41015625,0.0
97973.004701041,89.84375,-139.6484375,-540.52734375,-38.57421875,0.0
97973.008607291,-51.26953125,-141.11328125,-542.96875,-31.25,0.0
97973.011472708,-176.7578125,-139.6484375,-543.45703125,-38.57421875,0.0
97973.015378958,-1.46484375,-143.5546875,-537.59765625,-47.8515625,0.0
97973.019285208,119.62890625,-140.13671875,-530.76171875,-26.85546875,0.0
97973.023191458,25.87890625,-139.16015625,-525.87890625,-6.34765625,0.0
97973.027097708,-167.48046875,-144.53125,-525.87890625,-15.625,0.0
97973.031003958,-63.4765625,-155.76171875,-526.3671875,-26.3671875,0.0
97973.034910208,90.33203125,-168.45703125,-523.92578125,-27.34375,0.0
97973.038816458,52.24609375,-166.50390625,-521.97265625,-15.625,0.0
97973.042722708,-143.5546875,-159.66796875,-535.64453125,-2.9296875,0.0
97973.046628958,-126.46484375,-157.71484375,-536.62109375,-27.83203125,0.0
97973.050535208,92.28515625,-156.73828125,-524.90234375,-42.48046875,0.0
97973.054441458,100.09765625,-153.80859375,-525.87890625,-38.0859375,0.0
97973.057626416,-102.05078125,-153.80859375,-529.78515625,-27.83203125,0.0
97973.061532666,-181.15234375,-159.1796875,-526.85546875,-30.76171875,0.0
97973.065438916,21.97265625,-158.203125,-519.04296875,-40.0390625,0.0
97973.069345166,101.5625,-148.92578125,-512.6953125,-24.90234375,0.0
97973.073251416,-39.55078125,-149.90234375,-512.20703125,-17.08984375,0.0
97973.077157666,-187.01171875,-154.296875,-516.11328125,-34.66796875,0.0
97973.081063916,-15.625,-154.296875,-509.27734375,-49.31640625,0.0
97973.084970166,104.98046875,-159.1796875,-498.53515625,-30.76171875,0.0
97973.088876416,25.390625,-164.55078125,-497.0703125,0.9765625,0.0
97973.092782666,-184.08203125,-172.36328125,-501.953125,-10.25390625,0.0
97973.096688916,-96.19140625,-161.62109375,-491.69921875,-36.62109375,0.0
97973.100595166,100.09765625,-150.87890625,-478.515625,-30.76171875,0.0
97973.103824,62.5,-159.66796875,-484.375,-23.92578125,0.0
97973.10773025,-132.8125,-161.1328125,-485.3515625,-17.08984375,0.0
97973.1116365,-141.6015625,-156.25,-474.12109375,-33.203125,0.0
97973.11554275,51.7578125,-157.71484375,-468.26171875,-52.734375,0.0
97973.119449,79.58984375,-163.0859375,-471.19140625,-43.9453125,0.0
97973.12335525,-105.95703125,-169.43359375,-472.16796875,-28.3203125,0.0
97973.1272615,-198.73046875,-170.41015625,-467.28515625,-38.57421875,0.0
97973.13116775,0.0,-171.875,-467.7734375,-55.6640625,0.0
97973.135074,76.171875,-173.33984375,-470.703125,-36.62109375,0.0
97973.13898025,-37.59765625,-171.875,-467.28515625,-21.97265625,0.0
97973.1428865,-184.5703125,-169.921875,-461.9140625,-30.76171875,0.0
97973.14679275,-56.640625,-171.38671875,-457.51953125,-39.0625,0.0
97973.150810291,74.70703125,-174.31640625,-456.54296875,-28.80859375,0.0
97973.154716541,17.08984375,-174.8046875,-458.0078125,-3.90625,0.0
97973.158622791,-185.05859375,-176.26953125,-459.9609375,-21.484375,0.0
97973.162529041,-116.69921875,-177.24609375,-461.42578125,-43.9453125,0.0
97973.166435291,69.3359375,-172.8515625,-460.44921875,-41.015625,0.0
97973.170341541,48.33984375,-172.8515625,-464.35546875,-40.0390625,0.0
97973.174247791,-133.7890625,-173.33984375,-468.26171875,-37.109375,0.0
97973.178154041,-149.90234375,-164.55078125,-468.75,-47.36328125,0.0
97973.182060291,36.62109375,-168.45703125,-473.6328125,-56.640625,0.0
97973.185966541,74.70703125,-173.33984375,-466.30859375,-32.2265625,0.0
97973.189872791,-76.66015625,-170.41015625,-461.42578125,-18.06640625,0.0
97973.193779041,-188.4765625,-170.8984375,-463.37890625,-39.0625,0.0
97973.194234625,-8.30078125,-166.9921875,-457.03125,-49.8046875,0.0
97973.198140875,86.9140625,-161.62109375,-455.078125,-41.9921875,0.0
97973.202047125,-19.04296875,-166.9921875,-462.890625,-37.59765625,0.0
97973.205953375,-201.66015625,-171.875,-467.28515625,-48.828125,0.0
97973.209859625,-77.63671875,-168.45703125,-461.9140625,-62.5,0.0
97973.213765875,75.1953125,-170.41015625,-457.03125,-49.8046875,0.0
97973.217672125,25.87890625,-180.17578125,-456.0546875,-34.1796875,0.0
97973.221578375,-169.43359375,-188.4765625,-458.984375,-36.1328125,0.0
97973.225484625,-119.62890625,-185.05859375,-453.125,-31.25,0.0
97973.229390875,79.1015625,-177.734375,-446.2890625,-34.66796875,0.0
97973.233297125,59.5703125,-183.59375,-456.54296875,-34.1796875,0.0
97973.237203375,-136.23046875,-185.546875,-458.984375,-29.78515625,0.0
97973.264548125,-172.8515625,-180.6640625,-449.21875,-44.921875,0.0
97973.268454375,20.01953125,-180.6640625,-448.73046875,-58.59375,0.0
97973.272360625,57.12890625,-177.24609375,-451.171875,-52.734375,0.0
97973.276266875,-89.84375,-167.48046875,-447.75390625,-34.1796875,0.0
97973.280173125,-199.21875,-159.66796875,-443.359375,-31.73828125,0.0
97973.284079375,-15.13671875,-158.203125,-443.359375,-52.734375,0.0
97973.287985625,80.56640625,-154.78515625,-441.89453125,-43.45703125,0.0
97973.291891875,-24.90234375,-151.85546875,-439.453125,-23.92578125,0.0
97973.295798125,-209.47265625,-151.85546875,-437.98828125,-40.0390625,0.0
97973.299704375,-91.30859375,-149.90234375,-438.96484375,-65.91796875,0.0
97973.303610625,80.078125,-147.94921875,-436.03515625,-62.01171875,0.0
97973.307516875,31.25,-145.01953125,-430.6640625,-36.62109375,0.0
97973.285852916,-167.48046875,-140.13671875,-430.6640625,-42.48046875,0.0
97973.289759166,-137.6953125,-141.11328125,-427.24609375,-57.6171875,0.0
97973.293665416,55.17578125,-141.6015625,-425.78125,-57.6171875,0.0
97973.297571666,61.5234375,-135.25390625,-427.734375,-60.05859375,0.0
97973.301477916,-116.69921875,-125.9765625,-427.734375,-61.5234375,0.0
97973.305384166,-186.5234375,-124.0234375,-426.7578125,-57.12890625,0.0
97973.309290416,14.6484375,-128.90625,-422.8515625,-48.828125,0.0
97973.313196666,85.9375,-126.953125,-419.921875,-37.109375,0.0
97973.317102916,-46.875,-119.140625,-418.45703125,-39.55078125,0.0
97973.321009166,-193.359375,-110.83984375,-414.55078125,-53.22265625,0.0
97973.324915416,-41.9921875,-110.3515625,-412.109375,-57.6171875,0.0
97973.328821666,81.54296875,-111.328125,-408.69140625,-41.9921875,0.0
97973.330494,4.8828125,-104.4921875,-407.71484375,-27.83203125,0.0
97973.33440025,-179.6875,-98.6328125,-411.1328125,-33.203125,0.0
97973.3383065,-97.65625,-96.19140625,-403.3203125,-41.50390625,0.0
97973.34221275,63.96484375,-95.21484375,-395.01953125,-40.52734375,0.0
97973.346119,41.9921875,-93.75,-395.01953125,-37.59765625,0.0
97973.35002525,-153.80859375,-88.8671875,-391.6015625,-39.55078125,0.0
97973.3539315,-163.57421875,-87.890625,-387.6953125,-45.41015625,0.0
97973.35783775,31.25,-82.51953125,-382.8125,-46.38671875,0.0
97973.361744,61.5234375,-79.1015625,-378.41796875,-37.109375,0.0
97973.36565025,-105.95703125,-83.0078125,-378.41796875,-19.53125,0.0
97973.3695565,-183.59375,-81.0546875,-377.9296875,-10.25390625,0.0
97973.37346275,21.97265625,-76.66015625,-373.046875,-23.4375,0.0
97973.403509166,108.3984375,-81.0546875,-373.046875,-31.73828125,0.0
97973.407415416,-22.4609375,-81.54296875,-373.53515625,-20.5078125,0.0
97973.411321666,-183.10546875,-75.1953125,-366.69921875,-22.94921875,0.0
97973.415227916,-32.71484375,-72.265625,-360.3515625,-48.33984375,0.0
97973.419134166,92.28515625,-74.21875,-361.328125,-48.828125,0.0
97973.423040416,15.625,-79.1015625,-362.3046875,-43.45703125,0.0
97973.426946666,-187.98828125,-77.63671875,-364.2578125,-40.0390625,0.0
97973.430852916,-117.1875,-69.3359375,-358.3984375,-51.7578125,0.0
97973.434759166,69.82421875,-72.75390625,-353.515625,-53.7109375,0.0
97973.438665416,44.921875,-77.1484375,-356.4453125,-34.1796875,0.0
97973.442571666,-146.97265625,-79.1015625,-356.4453125,-40.0390625,0.0
97973.446477916,-161.62109375,-81.54296875,-356.4453125,-54.19921875,0.0
97973.469691791,38.0859375,-82.51953125,-352.05078125,-58.59375,0.0
97973.455846125,70.80078125,-79.1015625,-346.19140625,-42.96875,0.0
97973.459752375,-90.33203125,-75.1953125,-344.23828125,-32.2265625,0.0
97973.463658625,-185.05859375,-74.70703125,-347.65625,-41.9921875,0.0
97973.467564875,1.953125,-74.21875,-339.84375,-53.7109375,0.0
97973.471471125,83.49609375,-80.078125,-336.42578125,-41.50390625,0.0
97973.475377375,-30.2734375,-79.58984375,-337.40234375,-30.76171875,0.0
97973.479283625,-192.3828125,-79.1015625,-339.35546875,-57.6171875,0.0
97973.483189875,-52.24609375,-82.03125,-333.0078125,-59.5703125,0.0
97973.487096125,88.8671875,-83.984375,-325.68359375,-46.875,0.0
97973.491002375,17.578125,-82.03125,-321.2890625,-43.45703125,0.0
97973.494908625,-187.98828125,-80.56640625,-322.75390625,-44.921875,0.0
97973.479913875,-139.6484375,-81.54296875,-317.3828125,-49.31640625,0.0
97973.483820125,53.22265625,-81.54296875,-302.734375,-54.19921875,0.0
97973.487726375,40.0390625,-81.54296875,-295.8984375,-42.48046875,0.0
97973.491632625,-147.94921875,-83.0078125,-297.36328125,-41.50390625,0.0
97973.495538875,-179.19921875,-90.33203125,-295.8984375,-51.7578125,0.0
97973.499445125,9.765625,-94.7265625,-285.64453125,-37.59765625,0.0
97973.503351375,68.84765625,-91.30859375,-278.80859375,-29.78515625,0.0
97973.507257625,-73.73046875,-80.078125,-280.76171875,-31.73828125,0.0
97973.511163875,-208.0078125,-74.21875,-280.76171875,-42.96875,0.0
97973.515070125,-31.25,-73.73046875,-270.99609375,-50.29296875,0.0
97973.535050291,98.14453125,-68.84765625,-261.71875,-41.015625,0.0
97973.538956541,7.32421875,-67.3828125,-263.18359375,-32.71484375,0.0
97973.561092416,-185.05859375,-76.171875,-275.390625,-46.38671875,0.0
97973.543564166,-69.82421875,-77.1484375,-268.5546875,-51.26953125,0.0
97973.547470416,92.7734375,-77.1484375,-259.27734375,-44.43359375,0.0
97973.551376666,51.26953125,-82.03125,-264.16015625,-33.69140625,0.0
97973.555282916,-150.390625,-82.03125,-267.08984375,-25.390625,0.0
97973.559189166,-125.0,-82.03125,-263.671875,-41.50390625,0.0
97973.563095416,76.171875,-80.56640625,-258.30078125,-50.29296875,0.0
97973.567001666,87.40234375,-82.03125,-261.23046875,-29.296875,0.0
97973.570907916,-96.19140625,-95.21484375,-265.13671875,-8.7890625,0.0
97973.574814166,-174.8046875,-100.5859375,-259.27734375,-31.25,0.0
97973.578720416,20.01953125,-98.14453125,-250.48828125,-62.01171875,0.0
97973.582626666,89.84375,-97.65625,-248.53515625,-43.9453125,0.0
97973.586829708,-47.8515625,-94.23828125,-252.44140625,-33.203125,0.0
97973.590735958,-186.03515625,-88.8671875,-253.41796875,-48.828125,0.0
97973.594642208,-22.94921875,-83.984375,-246.09375,-57.12890625,0.0
97973.598548458,90.33203125,-86.42578125,-242.1875,-41.9921875,0.0
97973.602454708,-4.8828125,-87.890625,-243.1640625,-29.296875,0.0
97973.606360958,-171.875,-83.0078125,-246.09375,-37.59765625,0.0
97973.610267208,-55.6640625,-82.51953125,-240.72265625,-54.19921875,0.0
97973.614173458,87.890625,-81.54296875,-236.81640625,-60.05859375,0.0
97973.618079708,36.62109375,-76.171875,-232.91015625,-30.76171875,0.0
97973.621985958,-147.4609375,-70.80078125,-230.95703125,-20.5078125,0.0
97973.625892208,-137.6953125,-72.265625,-233.3984375,-42.96875,0.0
97973.629798458,49.31640625,-76.171875,-229.98046875,-44.43359375,0.0
97973.646090541,80.56640625,-70.80078125,-228.02734375,-30.76171875,0.0
97973.649996791,-87.40234375,-67.87109375,-229.00390625,-21.97265625,0.0
97973.639906458,-178.7109375,-70.3125,-233.88671875,-36.1328125,0.0
97973.643812708,17.578125,-74.21875,-232.421875,-45.41015625,0.0
97973.647718958,95.703125,-79.1015625,-225.09765625,-38.57421875,0.0
97973.651625208,-40.52734375,-81.0546875,-231.4453125,-37.109375,0.0
97973.655531458,-196.2890625,-81.54296875,-237.79296875,-39.0625,0.0
97973.659437708,-42.48046875,-81.54296875,-229.98046875,-54.19921875,0.0
97973.663343958,84.9609375,-84.47265625,-223.6328125,-56.15234375,0.0
97973.667250208,9.27734375,-83.984375,-221.19140625,-35.64453125,0.0
97973.671156458,-192.87109375,-80.078125,-221.6796875,-37.109375,0.0
97973.675062708,-114.2578125,-78.125,-222.16796875,-49.31640625,0.0
97973.691572708,76.171875,-78.61328125,-213.8671875,-43.9453125,0.0
97973.695478958,60.546875,-80.56640625,-210.9375,-34.1796875,0.0
97973.685407583,-144.53125,-80.56640625,-221.19140625,-48.828125,0.0
97973.689313833,-167.96875,-77.1484375,-222.16796875,-64.453125,0.0
97973.693220083,35.64453125,-68.84765625,-213.37890625,-56.640625,0.0
97973.697126333,71.2890625,-67.87109375,-208.49609375,-55.17578125,0.0
97973.701032583,-101.5625,-73.73046875,-210.9375,-48.828125,0.0
97973.704938833,-217.28515625,-75.68359375,-216.30859375,-46.875,0.0
97973.708845083,-23.92578125,-67.3828125,-204.1015625,-68.84765625,0.0
97973.712751333,74.70703125,-61.03515625,-196.2890625,-60.546875,0.0
97973.716657583,-43.45703125,-57.6171875,-199.70703125,-30.76171875,0.0
97973.720563833,-211.42578125,-50.78125,-196.77734375,-23.4375,0.0
97973.697823375,-61.5234375,-39.55078125,-187.98828125,-53.22265625,0.0
97973.701729625,72.75390625,-28.80859375,-188.4765625,-61.03515625,0.0
97973.705635875,-0.9765625,-18.5546875,-190.4296875,-40.0390625,0.0
97973.709542125,-203.61328125,-13.18359375,-188.96484375,-40.0390625,0.0
97973.713448375,-149.4140625,-14.6484375,-189.94140625,-63.96484375,0.0
97973.717354625,30.2734375,-14.6484375,-183.10546875,-69.82421875,0.0
97973.721260875,10.7421875,-16.6015625,-180.17578125,-53.7109375,0.0
97973.725167125,-169.921875,-18.06640625,-181.640625,-34.1796875,0.0
97973.729073375,-202.1484375,-26.3671875,-180.6640625,-52.24609375,0.0
97973.732979625,-3.41796875,-35.64453125,-180.6640625,-70.3125,0.0
97973.736885875,57.12890625,-33.203125,-183.10546875,-50.78125,0.0
97973.740792125,-90.8203125,-24.90234375,-183.59375,-39.55078125,0.0
97973.766282333,-211.42578125,-20.01953125,-185.546875,-45.41015625,0.0
97973.770188583,-39.0625,-20.5078125,-188.96484375,-53.22265625,0.0
97973.774094833,59.08203125,-19.04296875,-186.5234375,-39.55078125,0.0
97973.778001083,-39.0625,-15.13671875,-188.96484375,-27.83203125,0.0
97973.781907333,-216.30859375,-10.25390625,-195.3125,-49.8046875,0.0
97973.785813583,-102.05078125,-4.39453125,-190.91796875,-72.265625,0.0
97973.789719833,41.9921875,0.0,-191.40625,-62.98828125,0.0
97973.793626083,1.953125,6.8359375,-188.96484375,-44.43359375,0.0
97973.797532333,-193.84765625,13.671875,-195.3125,-42.96875,0.0
97973.801438583,-162.109375,18.5546875,-203.125,-67.87109375,0.0
97973.805344833,34.1796875,27.34375,-203.61328125,-70.3125,0.0
97973.809251083,41.015625,42.48046875,-203.125,-48.33984375,0.0
97973.862168916,-131.34765625,60.05859375,-205.56640625,-46.875,0.0
97973.866075166,-182.12890625,80.078125,-213.8671875,-57.12890625,0.0
97973.869981416,12.6953125,101.5625,-213.8671875,-63.4765625,0.0
97973.873887666,73.73046875,111.81640625,-217.28515625,-49.31640625,0.0
97973.869062416,-67.3828125,112.79296875,-229.98046875,-35.64453125,0.0
97973.872968666,-207.51953125,112.79296875,-235.3515625,-45.8984375,0.0
97973.876874916,-30.2734375,122.55859375,-230.46875,-62.01171875,0.0
97973.880781166,91.30859375,128.90625,-228.02734375,-56.640625,0.0
97973.884687416,4.8828125,125.48828125,-233.88671875,-31.73828125,0.0
97973.888593666,-187.01171875,129.39453125,-242.67578125,-29.296875,0.0
97973.892499916,-94.7265625,143.06640625,-245.60546875,-50.78125,0.0
97973.896406166,80.56640625,157.2265625,-244.62890625,-53.7109375,0.0
97973.876649958,44.43359375,165.0390625,-250.48828125,-47.8515625,0.0
97973.880556208,-165.52734375,163.0859375,-259.765625,-46.38671875,0.0
97973.884462458,-150.87890625,165.0390625,-262.6953125,-61.03515625,0.0
97973.888368708,52.734375,178.22265625,-262.6953125,-64.453125,0.0
97973.892274958,80.56640625,188.96484375,-266.6015625,-45.8984375,0.0
97973.896181208,-104.98046875,190.91796875,-269.04296875,-51.26953125,0.0
97973.900087458,-199.21875,193.359375,-271.484375,-63.96484375,0.0
97973.903993708,-2.44140625,188.96484375,-270.5078125,-63.4765625,0.0
97973.907899958,74.21875,176.7578125,-272.94921875,-55.17578125,0.0
97973.911806208,-58.10546875,165.52734375,-280.2734375,-50.29296875,0.0
97973.915712458,-202.63671875,162.59765625,-281.73828125,-60.546875,0.0
97973.919618708,-37.59765625,149.4140625,-281.25,-71.77734375,0.0
97973.89751425,93.75,135.25390625,-279.296875,-65.91796875,0.0
97973.9014205,21.97265625,129.8828125,-276.85546875,-52.24609375,0.0
97973.90532675,-183.10546875,127.9296875,-281.73828125,-61.03515625,0.0
97973.909233,-110.83984375,132.8125,-280.76171875,-67.3828125,0.0
97973.91313925,75.1953125,137.20703125,-277.34375,-46.38671875,0.0
97973.9170455,45.41015625,135.7421875,-275.390625,-29.296875,0.0
97973.92095175,-150.390625,119.62890625,-272.4609375,-31.73828125,0.0
97973.924858,-145.01953125,108.3984375,-272.4609375,-43.9453125,0.0
97973.92876425,57.12890625,99.12109375,-274.4140625,-46.875,0.0
97973.9326705,75.68359375,90.8203125,-269.53125,-46.38671875,0.0
97973.93657675,-93.26171875,81.0546875,-266.6015625,-47.36328125,0.0
97973.940483,-185.05859375,65.91796875,-271.484375,-48.33984375,0.0
97973.954683208,-4.8828125,56.640625,-272.94921875,-67.3828125,0.0
97973.958589458,82.51953125,47.36328125,-272.4609375,-64.94140625,0.0
97973.962495708,-30.2734375,31.73828125,-281.73828125,-45.41015625,0.0
97973.966401958,-213.37890625,20.01953125,-287.109375,-52.734375,0.0
97973.970308208,-81.54296875,14.6484375,-282.2265625,-66.89453125,0.0
97973.974214458,71.2890625,13.18359375,-284.66796875,-62.5,0.0
97973.978120708,14.6484375,7.32421875,-290.52734375,-43.45703125,0.0
97973.982026958,-188.96484375,-9.27734375,-297.36328125,-44.43359375,0.0
97973.993293041,-137.6953125,-17.08984375,-298.33984375,-58.59375,0.0
97973.997199291,56.640625,-17.578125,-293.45703125,-68.84765625,0.0
97974.001105541,49.31640625,-29.296875,-297.8515625,-59.08203125,0.0
97974.005011791,-144.04296875,-38.57421875,-303.7109375,-52.734375,0.0
97974.025114708,-176.7578125,-46.875,-303.7109375,-66.89453125,0.0
97974.007536458,33.69140625,-57.6171875,-298.33984375,-73.2421875,0.0
97974.011442708,82.03125,-64.453125,-301.7578125,-63.4765625,0.0
97974.015348958,-84.9609375,-70.80078125,-308.59375,-51.7578125,0.0
97974.019255208,-202.1484375,-81.0546875,-307.12890625,-53.7109375,0.0
97974.023161458,-15.625,-83.984375,-305.17578125,-66.89453125,0.0
97974.027067708,85.9375,-77.63671875,-308.10546875,-47.8515625,0.0
97974.030973958,-15.625,-81.0546875,-314.94140625,-33.203125,0.0
97974.034880208,-193.84765625,-85.9375,-318.359375,-48.828125,0.0
97974.038786458,-64.453125,-88.37890625,-311.5234375,-51.26953125,0.0
97974.042692708,94.7265625,-93.26171875,-305.6640625,-41.015625,0.0
97974.046598958,27.83203125,-101.07421875,-305.17578125,-51.26953125,0.0
97974.050458291,-181.15234375,-106.93359375,-305.17578125,-59.08203125,0.0
97974.054364541,-142.578125,-104.4921875,-302.734375,-79.1015625,0.0
97974.058270791,41.015625,-99.609375,-297.36328125,-85.44921875,0.0
97974.062177041,38.57421875,-93.75,-295.41015625,-62.5,0.0
97974.066083291,-135.7421875,-96.19140625,-300.29296875,-54.6875,0.0
97974.069989541,-186.5234375,-98.6328125,-297.8515625,-61.03515625,0.0
97974.073895791,-3.90625,-103.515625,-293.9453125,-66.89453125,0.0
97974.077802041,50.78125,-112.79296875,-290.52734375,-53.7109375,0.0
97974.081708291,-93.75,-90.8203125,-285.15625,-49.8046875,0.0
97974.085614541,-218.26171875,-44.43359375,-290.52734375,-51.26953125,0.0
97974.089520791,-40.0390625,27.34375,-294.921875,-39.55078125,0.0
97974.093427041,72.265625,111.328125,-296.875,-57.6171875,0.0
97974.116370541,-5.37109375,154.78515625,-296.38671875,-66.40625,0.0
97974.102481291,-186.5234375,153.80859375,-300.78125,-54.6875,0.0
97974.106387541,-84.9609375,137.6953125,-310.546875,-59.5703125,0.0
97974.110293791,87.40234375,115.72265625,-309.08203125,-53.22265625,0.0
97974.114200041,53.7109375,95.21484375,-306.640625,-42.96875,0.0
97974.118106291,-152.34375,80.56640625,-312.98828125,-49.31640625,0.0
97974.122012541,-139.16015625,59.5703125,-312.98828125,-58.59375,0.0
97974.125918791,57.6171875,52.734375,-312.01171875,-62.98828125,0.0
97974.129825041,59.08203125,48.828125,-319.82421875,-50.78125,0.0
97974.133731291,-121.58203125,32.2265625,-331.54296875,-43.9453125,0.0
97974.137637541,-199.21875,25.390625,-345.21484375,-50.78125,0.0
97974.141543791,-1.46484375,36.1328125,-344.7265625,-60.05859375,0.0
97974.141571041,79.1015625,44.43359375,-347.65625,-53.22265625,0.0
97974.145477291,-50.78125,48.33984375,-365.234375,-46.38671875,0.0
97974.149383541,-199.21875,52.734375,-374.0234375,-61.03515625,0.0
97974.153289791,-43.9453125,54.19921875,-371.09375,-78.61328125,0.0
97974.157196041,79.58984375,53.7109375,-373.53515625,-66.89453125,0.0
97974.161102291,-9.27734375,43.9453125,-380.859375,-53.7109375,0.0
97974.165008541,-209.47265625,36.1328125,-388.671875,-58.10546875,0.0
97974.168914791,-108.88671875,41.9921875,-386.23046875,-74.70703125,0.0
97974.172821041,63.96484375,43.45703125,-383.30078125,-76.66015625,0.0
97974.176727291,35.64453125,47.8515625,-381.8359375,-62.01171875,0.0
97974.180633541,-157.71484375,58.10546875,-386.71875,-66.89453125,0.0
97974.184539791,-171.875,76.171875,-389.16015625,-80.078125,0.0
97974.187172708,31.73828125,89.84375,-385.25390625,-81.0546875,0.0
97974.191078958,58.10546875,96.19140625,-382.8125,-73.73046875,0.0
97974.194985208,-117.1875,100.09765625,-378.41796875,-64.94140625,0.0
97974.198891458,-202.1484375,94.7265625,-372.0703125,-61.03515625,0.0
97974.202797708,-20.99609375,87.40234375,-372.0703125,-60.05859375,0.0
97974.206703958,58.10546875,89.84375,-373.046875,-53.22265625,0.0
97974.210610208,-55.17578125,101.5625,-372.55859375,-55.17578125,0.0
97974.214516458,-216.796875,104.4921875,-371.58203125,-63.4765625,0.0
97974.218422708,-74.70703125,101.07421875,-359.86328125,-61.5234375,0.0
97974.222328958,64.94140625,100.5859375,-358.3984375,-60.546875,0.0
97974.226235208,-3.90625,101.5625,-358.88671875,-68.84765625,0.0
97974.230141458,-213.37890625,104.00390625,-358.88671875,-73.2421875,0.0
97974.234673,-136.71875,105.95703125,-354.4921875,-75.1953125,0.0
97974.23857925,49.8046875,114.74609375,-341.30859375,-61.5234375,0.0
97974.2424855,35.15625,131.34765625,-333.49609375,-52.24609375,0.0
97974.24639175,-149.4140625,144.04296875,-335.44921875,-50.78125,0.0
97974.250298,-187.5,150.390625,-335.9375,-54.19921875,0.0
97974.25420425,11.23046875,147.4609375,-331.0546875,-76.66015625,0.0
97974.2581105,62.98828125,144.04296875,-328.61328125,-78.125,0.0
97974.26201675,-102.05078125,147.94921875,-327.1484375,-68.359375,0.0
97974.265923,-221.6796875,155.76171875,-327.63671875,-65.4296875,0.0
97974.26982925,-44.921875,165.52734375,-325.1953125,-64.453125,0.0
97974.2737355,62.98828125,197.265625,-312.98828125,-55.6640625,0.0
97974.27764175,-38.0859375,250.48828125,-313.4765625,-48.33984375,0.0
97974.278068708,-214.35546875,299.8046875,-322.265625,-59.5703125,0.0
97974.281974958,-75.1953125,316.89453125,-315.4296875,-63.4765625,0.0
97974.285881208,75.1953125,306.15234375,-302.24609375,-50.78125,0.0
97974.289787458,14.16015625,294.921875,-306.15234375,-35.15625,0.0
97974.293693708,-184.5703125,291.015625,-313.96484375,-31.25,0.0
97974.297599958,-115.72265625,283.203125,-308.10546875,-55.17578125,0.0
97974.301506208,59.5703125,276.85546875,-300.29296875,-76.171875,0.0
97974.305412458,33.69140625,264.16015625,-303.7109375,-64.94140625,0.0
97974.309318708,-145.99609375,241.69921875,-319.82421875,-53.22265625,0.0
97974.313224958,-198.2421875,230.95703125,-317.3828125,-65.91796875,0.0
97974.317131208,-3.90625,216.796875,-310.05859375,-74.21875,0.0
97974.321037458,48.828125,192.3828125,-309.08203125,-58.10546875,0.0
97974.325600125,-92.7734375,176.7578125,-303.7109375,-46.38671875,0.0
97974.329506375,-215.33203125,168.45703125,-302.734375,-57.12890625,0.0
97974.333412625,-41.50390625,161.62109375,-302.734375,-76.171875,0.0
97974.337318875,61.03515625,158.69140625,-303.22265625,-63.96484375,0.0
97974.341225125,-43.9453125,153.3203125,-304.6875,-39.55078125,0.0
97974.345131375,-224.609375,152.34375,-308.59375,-51.7578125,0.0
97974.349037625,-102.5390625,157.2265625,-312.98828125,-77.1484375,0.0
97974.352943875,53.22265625,156.73828125,-314.94140625,-65.91796875,0.0
97974.356850125,5.37109375,150.87890625,-320.80078125,-41.015625,0.0
97974.360756375,-184.08203125,149.4140625,-325.68359375,-44.921875,0.0
97974.364662625,-163.57421875,139.6484375,-326.66015625,-65.91796875,0.0
97974.368568875,24.90234375,130.859375,-330.56640625,-64.94140625,0.0
97974.3733515,33.203125,124.51171875,-337.40234375,-56.640625,0.0
97974.37725775,-131.8359375,112.3046875,-338.37890625,-59.5703125,0.0
97974.381164,-192.3828125,100.5859375,-341.30859375,-71.77734375,0.0
97974.38507025,-4.8828125,88.8671875,-343.26171875,-70.80078125,0.0
97974.3889765,57.12890625,76.66015625,-341.30859375,-65.91796875,0.0
97974.39288275,-79.58984375,66.89453125,-346.6796875,-61.5234375,0.0
97974.396789,-226.5625,58.10546875,-351.07421875,-59.5703125,0.0
97974.40069525,-67.3828125,49.8046875,-349.12109375,-62.98828125,0.0
97974.4046015,61.03515625,46.875,-343.26171875,-56.640625,0.0
97974.40850775,-18.06640625,41.015625,-341.796875,-62.01171875,0.0
97974.412414,-224.12109375,27.83203125,-349.12109375,-62.5,0.0
97974.41632025,-133.7890625,19.53125,-349.609375,-63.96484375,0.0
97974.420464208,56.640625,16.6015625,-345.703125,-60.546875,0.0
97974.424370458,23.4375,9.765625,-345.703125,-49.8046875,0.0
97974.428276708,-182.12890625,-2.44140625,-354.00390625,-49.31640625,0.0
97974.432182958,-174.31640625,-15.13671875,-351.5625,-58.59375,0.0
97974.436089208,30.2734375,-19.53125,-341.30859375,-61.5234375,0.0
97974.439995458,45.8984375,-20.99609375,-336.42578125,-48.828125,0.0
97974.443901708,-127.9296875,-33.203125,-337.890625,-33.203125,0.0
97974.447807958,-228.515625,-46.38671875,-338.8671875,-36.1328125,0.0
97974.451714208,-32.2265625,-52.24609375,-333.49609375,-61.03515625,0.0
97974.455620458,66.40625,-56.15234375,-336.9140625,-73.2421875,0.0
97974.459526708,-72.75390625,-59.5703125,-339.84375,-66.40625,0.0
97974.463432958,-232.421875,-61.03515625,-343.26171875,-66.89453125,0.0
97974.466283,-65.4296875,-59.5703125,-349.12109375,-83.49609375,0.0
97974.47018925,62.01171875,-63.4765625,-351.07421875,-76.171875,0.0
97974.4740955,-20.5078125,-68.84765625,-354.00390625,-50.29296875,0.0
97974.47800175,-218.75,-70.3125,-354.00390625,-56.15234375,0.0
97974.481908,-148.4375,-67.3828125,-357.421875,-77.1484375,0.0
97974.48581425,28.3203125,-60.05859375,-363.28125,-83.49609375,0.0
97974.4897205,9.765625,-50.78125,-363.28125,-57.12890625,0.0
97974.49362675,-178.7109375,-42.48046875,-360.3515625,-45.8984375,0.0
97974.497533,-188.96484375,-37.109375,-366.69921875,-65.4296875,0.0
97974.50143925,22.4609375,-37.59765625,-373.046875,-67.3828125,0.0
97974.5053455,51.7578125,-37.109375,-372.0703125,-57.12890625,0.0
97974.50925175,-125.48828125,-38.57421875,-379.8828125,-52.734375,0.0
97974.512308083,-234.375,-40.0390625,-389.16015625,-71.77734375,0.0
97974.516214333,-40.0390625,-39.55078125,-385.7421875,-80.078125,0.0
97974.520120583,60.05859375,-41.9921875,-383.30078125,-53.22265625,0.0
97974.524026833,-51.26953125,-50.78125,-386.71875,-50.78125,0.0
97974.527933083,-229.98046875,-57.12890625,-391.11328125,-74.21875,0.0
97974.531839333,-99.12109375,-58.10546875,-393.5546875,-86.42578125,0.0
97974.535745583,46.38671875,-50.78125,-395.99609375,-69.3359375,0.0
97974.539651833,-7.32421875,-45.41015625,-396.97265625,-48.828125,0.0
97974.543558083,-205.078125,-50.78125,-410.15625,-49.8046875,0.0
