lsl_timestamp,TP9,AF7,AF8,TP10,Right AUX
104618.085229333,-112.3046875,-484.375,71.77734375,-59.5703125,0.0
104618.089135583,105.95703125,-238.28125,93.26171875,3.41796875,0.0
104618.093041833,177.734375,-430.6640625,45.41015625,32.2265625,0.0
104618.096948083,13.18359375,-555.6640625,52.734375,-35.64453125,0.0
104618.100854333,-164.0625,-610.3515625,71.2890625,-51.26953125,0.0
104618.104760583,-14.16015625,-679.6875,61.5234375,9.27734375,0.0
104618.108666833,101.07421875,-840.33203125,-13.671875,31.73828125,0.0
104618.112573083,19.04296875,-900.390625,-35.15625,-20.5078125,0.0
104618.116479333,-128.90625,-731.4453125,103.515625,-49.8046875,0.0
104618.120385583,-44.43359375,-504.8828125,145.5078125,-15.13671875,0.0
104618.124291833,98.14453125,-522.94921875,111.328125,31.73828125,0.0
104618.128198083,63.96484375,-522.94921875,111.81640625,-1.953125,0.0
104618.132486291,-104.4921875,-522.94921875,82.03125,-58.10546875,0.0
104618.136392541,-96.6796875,-620.60546875,52.734375,-24.4140625,0.0
104618.140298791,57.12890625,-559.08203125,69.82421875,26.3671875,0.0
104618.144205041,48.828125,-500.48828125,90.33203125,8.7890625,0.0
104618.148111291,-79.1015625,-758.30078125,19.53125,-50.29296875,0.0
104618.152017541,-126.953125,-988.76953125,-8.30078125,-52.734375,0.0
104618.155923791,19.53125,-950.68359375,-28.3203125,-1.46484375,0.0
104618.159830041,41.9921875,-769.04296875,53.7109375,13.671875,0.0
104618.163736291,-20.01953125,-432.6171875,163.0859375,-8.30078125,0.0
104618.167642541,-100.5859375,-667.48046875,62.01171875,0.48828125,0.0
104618.171548791,-11.71875,-701.171875,47.8515625,51.7578125,0.0
104618.175455041,62.01171875,-233.88671875,148.4375,8.7890625,0.0
104618.179006916,32.2265625,-370.1171875,92.7734375,-76.171875,0.0
104618.182913166,-108.3984375,-890.13671875,-39.55078125,-87.40234375,0.0
104618.186819416,-64.94140625,-639.6484375,33.203125,-53.7109375,0.0
104618.190725666,45.8984375,-234.86328125,130.37109375,-16.6015625,0.0
104618.194631916,29.296875,-332.03125,109.375,-30.76171875,0.0
104618.198538166,-83.0078125,-726.5625,-42.48046875,-44.921875,0.0
104618.202444416,-78.61328125,-910.64453125,-74.21875,-20.5078125,0.0
104618.206350666,40.0390625,-477.05078125,101.07421875,-4.8828125,0.0
104618.210256916,38.0859375,-245.1171875,142.578125,-28.80859375,0.0
104618.214163166,-21.97265625,-633.30078125,-10.7421875,-67.3828125,0.0
104618.218069416,-85.9375,-669.43359375,-12.20703125,-42.96875,0.0
104618.221975666,4.39453125,-129.39453125,144.53125,-4.39453125,0.0
104618.224651166,33.203125,-234.86328125,116.69921875,-14.6484375,0.0
104618.228557416,-4.8828125,-523.92578125,40.0390625,-53.22265625,0.0
104618.232463666,-100.09765625,-348.14453125,58.10546875,-80.078125,0.0
104618.236369916,-33.69140625,-39.0625,110.83984375,-49.31640625,0.0
104618.240276166,27.34375,-251.46484375,63.96484375,-22.94921875,0.0
104618.244182416,13.18359375,-675.29296875,-21.97265625,-52.24609375,0.0
104618.248088666,-80.078125,-697.75390625,-20.01953125,-76.66015625,0.0
104618.251994916,-57.12890625,-302.734375,67.87109375,-51.7578125,0.0
104618.255901166,28.3203125,-273.92578125,62.01171875,-26.3671875,0.0
104618.259807416,21.97265625,-809.5703125,-46.875,-48.828125,0.0
104618.263713666,-52.24609375,-440.91796875,38.0859375,-93.26171875,0.0
104618.267619916,-68.84765625,199.21875,141.11328125,-87.890625,0.0
104618.269857875,19.53125,-73.2421875,61.03515625,-50.78125,0.0
104618.273764125,10.25390625,-443.359375,19.04296875,-36.1328125,0.0
104618.277670375,-31.73828125,-101.5625,67.3828125,-67.87109375,0.0
104618.281576625,-65.91796875,181.15234375,67.87109375,-71.2890625,0.0
104618.285482875,27.34375,-32.71484375,16.11328125,-29.78515625,0.0
104618.289389125,25.390625,-627.9296875,-50.29296875,-24.90234375,0.0
104618.293295375,-8.7890625,-513.671875,-0.48828125,-58.59375,0.0
104618.297201625,-69.3359375,126.46484375,104.4921875,-77.1484375,0.0
104618.301107875,-6.8359375,-295.41015625,-19.04296875,-40.0390625,0.0
104618.305014125,40.52734375,-827.63671875,-94.7265625,10.7421875,0.0
104618.308920375,25.390625,-176.26953125,92.28515625,-33.69140625,0.0
104618.312826625,-32.71484375,67.3828125,77.1484375,-88.8671875,0.0
104618.315036833,0.9765625,-4.39453125,32.71484375,-55.6640625,0.0
104618.318943083,78.125,-6.34765625,72.265625,-9.765625,0.0
104618.322849333,57.12890625,-7.8125,89.35546875,-24.90234375,0.0
104618.326755583,-12.6953125,-16.11328125,43.45703125,-56.640625,0.0
104618.330661833,-41.015625,-68.84765625,31.73828125,-42.96875,0.0
104618.334568083,51.7578125,-194.82421875,38.57421875,-2.9296875,0.0
104618.338474333,38.57421875,-479.00390625,24.90234375,0.0,0.0
104618.342380583,-12.6953125,-399.4140625,35.15625,-44.921875,0.0
104618.346286833,-94.7265625,-594.23828125,-35.15625,-56.15234375,0.0
104618.350193083,-4.39453125,-238.76953125,68.84765625,-40.0390625,0.0
104618.354099333,38.0859375,228.02734375,187.5,-20.01953125,0.0
104618.358005583,1.46484375,-159.66796875,51.26953125,-21.484375,0.0
104618.362851625,-52.24609375,-267.578125,-10.25390625,-35.64453125,0.0
104618.366757875,-3.90625,345.21484375,122.55859375,-8.30078125,0.0
104618.370664125,20.5078125,115.72265625,81.0546875,8.7890625,0.0
104618.374570375,22.94921875,-436.5234375,-8.30078125,-9.765625,0.0
104618.378476625,-13.671875,-76.171875,49.8046875,-36.1328125,0.0
104618.382382875,-47.8515625,199.21875,81.0546875,-45.41015625,0.0
104618.386289125,9.765625,-11.23046875,60.05859375,-21.484375,0.0
104618.390195375,-7.32421875,-678.22265625,-40.0390625,-6.34765625,0.0
104618.394101625,-78.61328125,-636.23046875,-33.203125,-38.0859375,0.0
104618.398007875,-102.5390625,422.8515625,164.0625,-54.19921875,0.0
104618.401914125,9.27734375,584.47265625,154.78515625,-4.8828125,0.0
104618.405820375,14.6484375,-12.20703125,41.9921875,7.8125,0.0
104618.408259083,9.765625,87.40234375,50.29296875,-37.59765625,0.0
104618.412165333,-29.296875,585.44921875,106.4453125,-62.98828125,0.0
104618.416071583,34.1796875,547.8515625,70.3125,-48.828125,0.0
104618.419977833,26.85546875,100.5859375,13.671875,-19.53125,0.0
104618.423884083,-19.04296875,49.31640625,20.5078125,-35.15625,0.0
104618.427790333,-42.48046875,129.8828125,1.46484375,-46.875,0.0
104618.431696583,20.99609375,128.41796875,10.7421875,-14.16015625,0.0
104618.435602833,75.68359375,-476.5625,-71.77734375,18.5546875,0.0
104618.439509083,60.05859375,-487.3046875,-12.20703125,-13.671875,0.0
104618.443415333,13.671875,352.05078125,137.20703125,-52.24609375,0.0
104618.447321583,0.48828125,422.36328125,83.984375,-38.0859375,0.0
104618.451227833,52.734375,199.70703125,35.15625,-0.9765625,0.0
104618.456825583,44.43359375,180.17578125,71.77734375,1.953125,0.0
104618.460731833,10.7421875,405.76171875,82.03125,-56.15234375,0.0
104618.464638083,-19.04296875,270.01953125,5.859375,-53.7109375,0.0
104618.468544333,84.47265625,216.30859375,17.578125,20.01953125,0.0
104618.472450583,50.29296875,215.8203125,63.96484375,28.80859375,0.0
104618.476356833,22.94921875,29.78515625,0.9765625,-44.43359375,0.0
104618.480263083,-8.7890625,-292.96875,-83.0078125,-54.19921875,0.0
104618.484169333,33.203125,-562.5,-84.47265625,-20.5078125,0.0
104618.488075583,62.98828125,-128.41796875,67.87109375,-19.53125,0.0
104618.491981833,71.77734375,220.703125,130.37109375,-30.2734375,0.0
104618.495888083,29.296875,234.375,67.3828125,-58.59375,0.0
104618.499794333,50.29296875,409.1796875,84.9609375,-41.015625,0.0
104618.542284208,107.421875,450.68359375,122.0703125,5.859375,0.0
104618.52841225,108.3984375,158.203125,71.77734375,3.90625,0.0
104618.5323185,75.68359375,60.546875,36.1328125,-24.4140625,0.0
104618.53622475,76.171875,406.73828125,108.3984375,-34.66796875,0.0
104618.540131,105.95703125,418.9453125,95.21484375,-22.4609375,0.0
104618.54403725,58.59375,-172.8515625,-6.8359375,-19.53125,0.0
104618.5479435,43.9453125,-687.98828125,-110.83984375,-28.80859375,0.0
104618.55184975,16.11328125,-355.46875,-6.8359375,-37.59765625,0.0
104618.555756,89.84375,467.7734375,176.7578125,-14.6484375,0.0
104618.55966225,81.0546875,95.703125,99.12109375,21.97265625,0.0
104618.5635685,78.61328125,-329.1015625,22.94921875,-21.97265625,0.0
104618.56747475,37.59765625,75.1953125,85.9375,-67.3828125,0.0
104618.544927916,81.54296875,577.1484375,162.109375,-34.66796875,0.0
104618.548834166,83.49609375,80.56640625,71.77734375,-9.765625,0.0
104618.552740416,47.8515625,-295.8984375,41.9921875,-38.57421875,0.0
104618.556646666,-0.9765625,202.1484375,121.58203125,-60.546875,0.0
104618.560552916,46.38671875,564.453125,166.9921875,-48.828125,0.0
104618.564459166,79.58984375,-188.4765625,31.73828125,-18.06640625,0.0
104618.568365416,69.82421875,-699.70703125,8.30078125,-15.625,0.0
104618.572271666,68.359375,106.93359375,171.875,-25.390625,0.0
104618.576177916,36.62109375,524.90234375,187.5,-6.8359375,0.0
104618.580084166,64.453125,-27.83203125,76.171875,3.90625,0.0
104618.583990416,17.578125,-395.5078125,53.7109375,-21.484375,0.0
104618.587896666,18.06640625,253.41796875,154.296875,-49.31640625,0.0
104618.611558875,-13.18359375,275.87890625,92.28515625,-34.1796875,0.0
104618.615465125,33.203125,53.22265625,69.82421875,-7.32421875,0.0
104618.619371375,13.671875,27.83203125,120.1171875,-8.30078125,0.0
104618.623277625,9.27734375,242.1875,152.34375,-26.85546875,0.0
104618.627183875,0.48828125,380.37109375,113.28125,-43.9453125,0.0
104618.631090125,24.4140625,57.12890625,39.0625,-15.625,0.0
104618.634996375,7.8125,-300.29296875,40.52734375,0.0,0.0
104618.638902625,-2.44140625,-253.90625,79.1015625,-43.45703125,0.0
104618.642808875,-12.20703125,49.31640625,91.30859375,-48.33984375,0.0
104618.646715125,-0.48828125,-142.578125,49.31640625,-24.90234375,0.0
104618.650621375,41.015625,-44.43359375,118.1640625,-21.97265625,0.0
104618.654527625,37.59765625,207.51953125,167.48046875,-21.484375,0.0
104618.657465541,-3.90625,112.3046875,81.0546875,-38.0859375,0.0
104618.661371791,-43.9453125,238.76953125,84.47265625,-32.71484375,0.0
104618.665278041,44.921875,533.69140625,155.76171875,-13.671875,0.0
104618.669184291,29.78515625,176.26953125,111.81640625,-16.11328125,0.0
104618.673090541,3.90625,-146.97265625,41.9921875,-35.64453125,0.0
104618.676996791,-51.7578125,-156.73828125,23.4375,-50.29296875,0.0
104618.680903041,-9.27734375,164.0625,95.21484375,-30.76171875,0.0
104618.684809291,3.41796875,298.33984375,135.7421875,-23.4375,0.0
104618.688715541,-23.4375,-429.6875,-4.39453125,-51.7578125,0.0
104618.692621791,-132.8125,-593.75,-38.57421875,-75.1953125,0.0
104618.696528041,-100.5859375,441.89453125,181.15234375,-46.875,0.0
104618.700434291,-33.203125,365.72265625,155.76171875,-3.41796875,0.0
104618.698675875,-45.41015625,-172.8515625,40.0390625,-43.9453125,0.0
104618.702582125,-91.796875,79.58984375,75.68359375,-88.8671875,0.0
104618.706488375,-82.51953125,569.3359375,164.0625,-67.87109375,0.0
104618.710394625,-10.25390625,360.83984375,126.953125,-26.3671875,0.0
104618.714300875,-23.4375,-238.28125,38.57421875,-31.25,0.0
104618.718207125,-71.2890625,-275.390625,23.4375,-64.94140625,0.0
104618.722113375,-96.6796875,-17.578125,54.19921875,-69.82421875,0.0
104618.726019625,-6.34765625,-18.06640625,72.75390625,-48.828125,0.0
104618.729925875,-6.34765625,-672.8515625,-25.390625,-15.625,0.0
104618.733832125,-11.71875,-281.25,84.9609375,-49.31640625,0.0
104618.737738375,-58.10546875,533.69140625,203.125,-71.2890625,0.0
104618.741644625,3.90625,358.88671875,119.140625,-35.15625,0.0
104618.748373375,4.39453125,-85.44921875,84.47265625,-7.32421875,0.0
104618.752279625,-16.6015625,43.45703125,143.06640625,-38.0859375,0.0
104618.756185875,-54.6875,395.99609375,154.296875,-72.75390625,0.0
104618.760092125,-26.85546875,269.04296875,98.6328125,-62.01171875,0.0
104618.763998375,-20.5078125,-50.78125,90.33203125,-35.15625,0.0
104618.767904625,-42.96875,-285.64453125,85.44921875,-62.5,0.0
104618.771810875,-71.2890625,-135.7421875,80.078125,-102.05078125,0.0
104618.775717125,-83.49609375,-264.16015625,30.76171875,-74.21875,0.0
104618.779623375,-0.48828125,-630.37109375,16.6015625,-42.48046875,0.0
104618.783529625,-41.50390625,-366.69921875,138.18359375,-29.78515625,0.0
104618.787435875,-55.17578125,26.85546875,173.33984375,-26.85546875,0.0
104618.791342125,-79.1015625,121.09375,156.25,-21.97265625,0.0
104618.811859041,-7.8125,209.47265625,200.68359375,-36.1328125,0.0
104618.797835916,-22.94921875,154.296875,211.9140625,-65.91796875,0.0
104618.801742166,-52.24609375,25.87890625,158.69140625,-106.93359375,0.0
104618.805648416,-88.8671875,96.6796875,138.18359375,-116.2109375,0.0
104618.809554666,-20.99609375,332.51953125,195.3125,-62.98828125,0.0
104618.813460916,-3.90625,-51.26953125,152.34375,-33.69140625,0.0
104618.817367166,-16.11328125,-481.4453125,100.09765625,-60.05859375,0.0
104618.821273416,-37.109375,-700.68359375,22.4609375,-55.17578125,0.0
104618.825179666,-39.0625,-272.94921875,155.2734375,-46.875,0.0
104618.829085916,-25.390625,264.16015625,329.58984375,-49.8046875,0.0
104618.832992166,-38.0859375,-206.54296875,225.09765625,-54.6875,0.0
104618.836898416,-55.17578125,-341.30859375,158.203125,-68.359375,0.0
104618.857986916,-63.4765625,129.8828125,244.62890625,-33.203125,0.0
104618.843934458,1.46484375,354.98046875,289.55078125,-1.953125,0.0
104618.847840708,-17.578125,-270.5078125,188.4765625,-28.80859375,0.0
104618.851746958,-8.7890625,-286.1328125,177.24609375,-75.68359375,0.0
104618.855653208,-62.98828125,263.671875,235.83984375,-66.40625,0.0
104618.859559458,-23.92578125,174.31640625,222.65625,-26.85546875,0.0
104618.863465708,-20.5078125,-624.51171875,81.0546875,-14.6484375,0.0
104618.867371958,-21.484375,-702.1484375,87.40234375,-37.109375,0.0
104618.871278208,-60.546875,174.31640625,292.48046875,-55.17578125,0.0
104618.875184458,-16.11328125,419.921875,296.38671875,-20.5078125,0.0
104618.879090708,-2.44140625,-79.58984375,200.68359375,1.46484375,0.0
104618.882996958,-20.01953125,-213.37890625,197.75390625,-49.8046875,0.0
104618.91088875,-25.87890625,277.83203125,248.53515625,-83.984375,0.0
104618.914795,-3.41796875,443.359375,242.67578125,-60.05859375,0.0
104618.91870125,36.1328125,-111.328125,150.87890625,-31.73828125,0.0
104618.9226075,0.0,-344.7265625,171.875,-42.48046875,0.0
104618.92651375,-9.27734375,125.0,239.74609375,-77.63671875,0.0
104618.93042,-25.390625,107.91015625,174.8046875,-60.546875,0.0
104618.93432625,18.06640625,-556.640625,29.78515625,-12.20703125,0.0
104618.9382325,-17.578125,-734.375,104.98046875,-12.6953125,0.0
104618.94213875,-24.4140625,94.23828125,297.8515625,-48.33984375,0.0
104618.946045,-45.8984375,327.1484375,217.28515625,-54.6875,0.0
104618.94995125,-9.27734375,189.94140625,185.546875,-38.57421875,0.0
104618.9538575,-20.99609375,27.83203125,204.1015625,-15.13671875,0.0
104618.934235041,-27.83203125,69.82421875,208.984375,-42.48046875,0.0
104618.938141291,-38.57421875,131.34765625,176.7578125,-61.5234375,0.0
104618.942047541,-15.625,146.484375,175.29296875,-25.390625,0.0
104618.945953791,13.671875,184.5703125,233.3984375,-15.625,0.0
104618.949860041,1.953125,40.0390625,206.0546875,-33.69140625,0.0
104618.953766291,-41.9921875,-273.4375,85.44921875,-53.7109375,0.0
104618.957672541,-28.80859375,-438.4765625,50.78125,-33.69140625,0.0
104618.961578791,8.7890625,-41.015625,185.05859375,-8.30078125,0.0
104618.965485041,-27.83203125,-19.04296875,221.6796875,-38.0859375,0.0
104618.969391291,-38.0859375,-306.640625,116.2109375,-60.546875,0.0
104618.973297541,-59.5703125,-15.13671875,156.73828125,-45.41015625,0.0
104618.977203791,-12.6953125,454.58984375,276.85546875,-29.78515625,0.0
104618.980145,-58.10546875,56.640625,220.703125,-30.76171875,0.0
104618.98405125,-64.453125,-449.21875,93.75,-50.78125,0.0
104618.9879575,-76.66015625,-146.484375,145.99609375,-57.12890625,0.0
104618.99186375,-24.4140625,448.73046875,275.87890625,-35.15625,0.0
104618.99577,-37.59765625,46.875,188.4765625,-5.859375,0.0
104618.99967625,-40.52734375,-474.609375,89.84375,-30.2734375,0.0
104619.0035825,-52.24609375,-285.15625,115.234375,-71.77734375,0.0
104619.00748875,-23.92578125,68.359375,185.546875,-39.0625,0.0
104619.011395,-33.69140625,-188.4765625,144.53125,-9.27734375,0.0
104619.01530125,-46.38671875,-658.69140625,83.49609375,-23.92578125,0.0
104619.0192075,-43.9453125,-63.96484375,216.796875,-61.03515625,0.0
104619.02311375,-25.390625,580.56640625,283.69140625,-57.6171875,0.0
104619.028220583,24.90234375,84.47265625,143.06640625,-32.71484375,0.0
104619.032126833,-36.62109375,-420.41015625,85.44921875,-47.8515625,0.0
104619.036033083,-29.296875,68.84765625,166.50390625,-67.3828125,0.0
104619.039939333,-69.82421875,491.69921875,193.359375,-66.89453125,0.0
104619.043845583,-39.55078125,127.44140625,78.61328125,-42.96875,0.0
104619.047751833,-40.52734375,-678.22265625,-83.984375,-20.99609375,0.0
104619.051658083,-55.6640625,-422.36328125,8.7890625,-52.734375,0.0
104619.055564333,-106.93359375,372.0703125,168.45703125,-62.98828125,0.0
104619.059470583,-43.9453125,-127.9296875,-4.8828125,-28.3203125,0.0
104619.063376833,-12.20703125,-824.70703125,-95.703125,-6.34765625,0.0
104619.067283083,-21.97265625,-368.1640625,95.21484375,-35.15625,0.0
104619.071189333,-73.73046875,44.43359375,124.0234375,-72.75390625,0.0
104619.077026666,-61.5234375,144.53125,127.44140625,-39.0625,0.0
104619.080932916,-17.08984375,-5.37109375,161.62109375,-3.41796875,0.0
104619.084839166,-39.0625,-92.28515625,181.640625,-13.671875,0.0
104619.088745416,-48.33984375,43.45703125,144.04296875,-46.875,0.0
104619.092651666,-37.59765625,130.37109375,117.1875,-52.24609375,0.0
104619.096557916,11.71875,-144.53125,86.9140625,-23.92578125,0.0
104619.100464166,-33.69140625,-511.23046875,78.125,-20.5078125,0.0
104619.104370416,-36.62109375,-422.36328125,86.9140625,-40.0390625,0.0
104619.108276666,-78.125,-555.17578125,20.99609375,-62.01171875,0.0
104619.112182916,-35.64453125,-210.9375,175.78125,-46.875,0.0
104619.116089166,-47.36328125,87.40234375,305.17578125,-17.578125,0.0
104619.119995416,-44.43359375,-205.56640625,178.7109375,-42.48046875,0.0
104619.142730125,-67.87109375,-114.74609375,124.51171875,-49.31640625,0.0
104619.128841708,-36.62109375,147.94921875,204.58984375,-4.39453125,0.0
104619.132747958,-33.69140625,56.640625,243.65234375,25.390625,0.0
104619.136654208,-41.9921875,-298.33984375,165.52734375,-18.5546875,0.0
104619.140560458,-74.70703125,-159.1796875,128.90625,-65.4296875,0.0
104619.144466708,-55.17578125,120.1171875,181.640625,-51.26953125,0.0
104619.148372958,-8.7890625,-95.703125,189.94140625,-21.484375,0.0
104619.152279208,-45.8984375,-762.20703125,44.921875,-15.13671875,0.0
104619.156185458,-49.31640625,-678.22265625,55.6640625,-41.50390625,0.0
104619.160091708,-62.01171875,305.6640625,335.44921875,-59.5703125,0.0
104619.163997958,14.6484375,344.7265625,318.84765625,-39.55078125,0.0
104619.167904208,-16.11328125,-288.57421875,180.6640625,-31.25,0.0
104619.190103333,-31.73828125,-102.05078125,233.3984375,-51.26953125,0.0
104619.173950416,-70.80078125,466.796875,310.05859375,-68.84765625,0.0
104619.177856666,-29.78515625,412.109375,241.2109375,-28.80859375,0.0
104619.181762916,-15.13671875,-387.20703125,82.51953125,6.8359375,0.0
104619.185669166,-14.6484375,-419.43359375,144.53125,-33.203125,0.0
104619.189575416,-41.9921875,60.546875,218.26171875,-60.546875,0.0
104619.193481666,-2.44140625,22.94921875,176.7578125,-43.45703125,0.0
104619.197387916,-1.953125,-598.14453125,8.30078125,-20.5078125,0.0
104619.201294166,-31.25,-527.83203125,123.046875,-37.59765625,0.0
104619.205200416,-44.43359375,375.48828125,386.71875,-65.4296875,0.0
104619.209106666,-41.50390625,414.0625,275.390625,-50.78125,0.0
104619.213012916,-2.44140625,33.203125,165.0390625,-34.66796875,0.0
104619.190611666,-27.34375,-74.70703125,198.73046875,-32.2265625,0.0
104619.194517916,-32.71484375,210.9375,233.88671875,-46.38671875,0.0
104619.198424166,-77.63671875,225.09765625,162.109375,-45.41015625,0.0
104619.202330416,-14.16015625,112.79296875,156.73828125,-12.20703125,0.0
104619.206236666,-34.1796875,-26.3671875,196.77734375,-1.46484375,0.0
104619.210142916,-34.66796875,-169.43359375,126.46484375,-41.9921875,0.0
104619.214049166,-44.43359375,-415.52734375,-33.203125,-35.64453125,0.0
104619.217955416,21.97265625,-540.0390625,-31.25,15.625,0.0
104619.221861666,15.13671875,-35.15625,228.515625,9.765625,0.0
104619.225767916,-26.3671875,129.39453125,240.72265625,-38.0859375,0.0
104619.229674166,-50.29296875,75.68359375,118.65234375,-62.01171875,0.0
104619.233580416,0.0,325.1953125,181.640625,-25.87890625,0.0
104619.254706625,13.18359375,346.6796875,218.75,7.32421875,0.0
104619.258612875,-20.99609375,-15.13671875,127.44140625,-13.671875,0.0
104619.262519125,-21.97265625,35.15625,66.40625,-50.78125,0.0
104619.266425375,-13.671875,390.625,130.859375,-40.0390625,0.0
104619.270331625,32.71484375,338.37890625,146.97265625,11.23046875,0.0
104619.274237875,-12.20703125,-263.18359375,21.97265625,0.48828125,0.0
104619.278144125,-35.15625,-761.23046875,-160.64453125,-60.05859375,0.0
104619.282050375,-45.8984375,-295.8984375,-1.953125,-56.15234375,0.0
104619.285956625,26.85546875,385.25390625,244.62890625,-23.92578125,0.0
104619.289862875,3.41796875,-277.34375,53.7109375,0.48828125,0.0
104619.293769125,7.32421875,-344.7265625,52.24609375,-20.5078125,0.0
104619.297675375,-43.45703125,367.1875,208.0078125,-51.26953125,0.0
104619.296677,-22.4609375,633.7890625,230.46875,-35.15625,0.0
104619.30058325,-8.30078125,-34.66796875,44.43359375,-8.7890625,0.0
104619.3044895,-20.99609375,-381.34765625,-5.859375,-12.6953125,0.0
104619.30839575,-30.76171875,310.546875,145.5078125,-36.62109375,0.0
104619.312302,-18.06640625,517.578125,140.13671875,-32.2265625,0.0
104619.31620825,-3.90625,-362.79296875,-145.01953125,4.39453125,0.0
104619.3201145,-19.04296875,-809.5703125,-195.80078125,-15.13671875,0.0
104619.32402075,-25.87890625,50.29296875,110.3515625,-66.89453125,0.0
104619.327927,-4.39453125,585.44921875,187.98828125,-49.8046875,0.0
104619.33183325,50.29296875,-139.6484375,-45.8984375,-2.44140625,0.0
104619.3357395,0.0,-615.72265625,-77.63671875,-3.90625,0.0
104619.33964575,-22.94921875,-63.96484375,78.61328125,-57.6171875,0.0
104619.339060125,-72.75390625,69.3359375,17.08984375,-63.96484375,0.0
104619.342966375,-27.34375,109.375,46.38671875,-33.203125,0.0
104619.346872625,-48.828125,-45.41015625,97.16796875,-19.04296875,0.0
104619.350778875,-44.921875,24.90234375,111.328125,-40.0390625,0.0
104619.354685125,-61.5234375,269.04296875,80.078125,-49.31640625,0.0
104619.358591375,-29.296875,60.05859375,-7.8125,-7.8125,0.0
104619.362497625,-25.390625,-401.85546875,-66.40625,13.671875,0.0
104619.366403875,-21.484375,-353.515625,22.4609375,-21.484375,0.0
104619.370310125,-34.66796875,47.8515625,52.24609375,-57.12890625,0.0
104619.374216375,-35.64453125,-124.0234375,-34.1796875,-47.36328125,0.0
104619.378122625,8.30078125,-50.29296875,90.8203125,-17.578125,0.0
104619.382028875,0.48828125,115.234375,165.52734375,-5.37109375,0.0
104619.384879833,-22.4609375,44.921875,23.4375,-23.4375,0.0
104619.388786083,-62.98828125,198.73046875,-3.41796875,-30.76171875,0.0
104619.392692333,6.34765625,175.78125,12.6953125,-12.6953125,0.0
104619.396598583,-20.99609375,-84.47265625,-6.34765625,-12.20703125,0.0
104619.400504833,-18.5546875,-86.42578125,-49.31640625,-28.80859375,0.0
104619.404411083,-51.7578125,-170.41015625,-151.3671875,-31.73828125,0.0
104619.408317333,-17.578125,89.84375,-24.4140625,-29.78515625,0.0
104619.412223583,-8.7890625,188.4765625,87.40234375,-29.296875,0.0
104619.416129833,-22.4609375,-489.74609375,-160.15625,-44.43359375,0.0
104619.420036083,-47.8515625,-576.171875,-222.16796875,-48.33984375,0.0
104619.423942333,-5.37109375,455.56640625,149.90234375,-40.52734375,0.0
104619.427848583,-8.30078125,252.44140625,74.70703125,-16.11328125,0.0
104619.45225375,-41.50390625,-305.17578125,-76.171875,-20.01953125,0.0
104619.45616,-41.50390625,110.3515625,21.484375,-42.96875,0.0
104619.46006625,-41.50390625,637.6953125,124.51171875,-30.76171875,0.0
104619.4639725,-10.7421875,369.62890625,38.0859375,-0.48828125,0.0
104619.46787875,-17.08984375,-382.32421875,-146.97265625,24.4140625,0.0
104619.471785,6.34765625,-339.35546875,-148.92578125,0.48828125,0.0
104619.47569125,-20.01953125,57.12890625,-50.78125,-56.15234375,0.0
104619.4795975,20.5078125,-17.578125,-25.390625,-71.2890625,0.0
104619.48350375,-11.23046875,-695.80078125,-213.37890625,-46.875,0.0
104619.48741,-27.83203125,-378.90625,-74.70703125,-52.24609375,0.0
104619.49131625,-63.96484375,505.37109375,193.359375,-56.640625,0.0
104619.4952225,-14.6484375,363.28125,62.01171875,-21.97265625,0.0
104619.516451375,-5.37109375,-166.9921875,-60.05859375,0.48828125,0.0
104619.502474166,-13.18359375,-48.828125,24.90234375,-28.80859375,0.0
104619.506380416,-64.94140625,387.20703125,74.70703125,-49.8046875,0.0
104619.510286666,-33.69140625,362.79296875,12.20703125,-26.85546875,0.0
104619.514192916,8.7890625,-64.453125,-77.63671875,6.8359375,0.0
104619.518099166,-26.85546875,-356.4453125,-104.00390625,-4.39453125,0.0
104619.522005416,-53.7109375,-135.25390625,-78.125,-56.640625,0.0
104619.525911666,-57.12890625,-270.5078125,-169.43359375,-56.15234375,0.0
104619.529817916,-12.6953125,-614.74609375,-207.51953125,-21.97265625,0.0
104619.533724166,-44.43359375,-128.90625,83.0078125,-31.73828125,0.0
104619.537630416,-25.390625,269.53125,122.55859375,-48.828125,0.0
104619.541536666,-54.19921875,280.76171875,-6.8359375,-38.57421875,0.0
104619.563338791,-7.32421875,319.82421875,21.97265625,-7.32421875,0.0
104619.549009416,-19.04296875,204.58984375,67.3828125,-10.7421875,0.0
104619.552915666,-7.32421875,76.171875,-15.625,-40.52734375,0.0
104619.556821916,-35.15625,214.84375,-54.6875,-44.921875,0.0
104619.560728166,-13.18359375,420.41015625,17.08984375,-19.53125,0.0
104619.564634416,-11.71875,-25.390625,-70.3125,0.48828125,0.0
104619.568540666,-26.3671875,-336.42578125,-129.39453125,-30.76171875,0.0
104619.572446916,-64.94140625,-550.78125,-268.06640625,-42.96875,0.0
104619.576353166,-53.22265625,-59.08203125,-43.9453125,-28.80859375,0.0
104619.580259416,-11.23046875,401.3671875,185.546875,-13.671875,0.0
104619.584165666,-17.578125,-278.80859375,-51.26953125,-18.5546875,0.0
104619.588071916,-17.08984375,-68.359375,-37.109375,-58.59375,0.0
104619.592377541,-57.6171875,589.84375,154.296875,-68.84765625,0.0
104619.596283791,-22.4609375,574.21875,172.8515625,-34.1796875,0.0
104619.600190041,-50.29296875,-185.05859375,-36.1328125,-16.6015625,0.0
104619.604096291,-33.203125,-154.296875,-40.52734375,-45.8984375,0.0
104619.608002541,-41.015625,451.171875,104.4921875,-53.7109375,0.0
104619.611908791,-0.48828125,248.046875,43.45703125,-21.97265625,0.0
104619.615815041,-21.484375,-593.26171875,-204.1015625,-2.44140625,0.0
104619.619721291,-21.97265625,-707.03125,-209.47265625,-36.1328125,0.0
104619.623627541,-41.50390625,278.80859375,175.78125,-64.94140625,0.0
104619.627533791,-16.11328125,666.50390625,255.37109375,-36.1328125,0.0
104619.631440041,-9.765625,25.390625,59.08203125,0.9765625,0.0
104619.635346291,-14.6484375,-167.96875,58.10546875,-24.90234375,0.0
104619.638621291,-47.8515625,219.23828125,105.46875,-42.48046875,0.0
104619.642527541,-41.9921875,253.90625,60.546875,-20.5078125,0.0
104619.646433791,13.18359375,39.0625,59.08203125,-27.34375,0.0
104619.650340041,-25.390625,-79.1015625,114.2578125,-44.43359375,0.0
104619.654246291,-41.50390625,225.09765625,140.13671875,-63.96484375,0.0
104619.658152541,-47.8515625,247.55859375,48.828125,-55.17578125,0.0
104619.662058791,0.48828125,-383.30078125,-149.4140625,-14.6484375,0.0
104619.665965041,-43.9453125,-772.4609375,-123.53515625,-13.671875,0.0
104619.669871291,-50.29296875,39.55078125,182.12890625,-57.12890625,0.0
104619.673777541,-71.2890625,340.8203125,145.5078125,-65.4296875,0.0
104619.677683791,-26.85546875,94.23828125,52.24609375,-22.4609375,0.0
104619.681590041,-38.0859375,68.84765625,131.34765625,11.23046875,0.0
104619.68739,-36.1328125,199.21875,170.41015625,-26.3671875,0.0
104619.69129625,-62.01171875,278.3203125,51.26953125,-59.5703125,0.0
104619.6952025,-28.3203125,338.37890625,30.76171875,-33.203125,0.0
104619.69910875,-7.8125,73.73046875,36.1328125,-14.6484375,0.0
104619.703015,-36.1328125,-142.578125,9.27734375,-38.0859375,0.0
104619.70692125,-52.734375,-239.2578125,-115.72265625,-72.265625,0.0
104619.7108275,-26.85546875,-265.625,-124.0234375,-61.5234375,0.0
104619.71473375,39.55078125,298.33984375,174.31640625,-20.99609375,0.0
104619.71864,6.8359375,136.23046875,155.76171875,-7.32421875,0.0
104619.72254625,-2.44140625,-36.1328125,18.5546875,-18.06640625,0.0
104619.7264525,-44.43359375,268.5546875,88.37890625,-28.3203125,0.0
104619.73035875,-14.16015625,579.1015625,229.4921875,-23.92578125,0.0
104619.73641475,-47.8515625,38.57421875,60.546875,-1.46484375,0.0
104619.740321,-49.8046875,-158.69140625,-19.53125,-12.6953125,0.0
104619.74422725,-81.54296875,312.5,101.5625,-36.1328125,0.0
104619.7481335,-20.5078125,602.05078125,193.84765625,-32.2265625,0.0
104619.75203975,-6.8359375,98.14453125,65.4296875,-25.390625,0.0
104619.755946,-41.015625,-527.34375,-128.90625,-40.0390625,0.0
104619.75985225,-70.3125,-214.84375,-59.5703125,-43.9453125,0.0
104619.7637585,-38.57421875,177.24609375,85.9375,-20.5078125,0.0
104619.76766475,-18.5546875,-177.734375,18.06640625,-3.41796875,0.0
104619.771571,-38.0859375,-694.82421875,-110.83984375,-15.625,0.0
104619.77547725,-46.875,-119.62890625,111.81640625,-48.33984375,0.0
104619.7793835,-48.33984375,650.390625,365.72265625,-51.7578125,0.0
104619.78100775,-1.46484375,269.53125,212.40234375,-16.11328125,0.0
104619.784914,-19.04296875,-290.52734375,39.55078125,-0.48828125,0.0
104619.78882025,-16.11328125,119.140625,136.23046875,-23.4375,0.0
104619.7927265,-63.4765625,507.8125,173.828125,-32.2265625,0.0
104619.79663275,-25.390625,266.6015625,61.03515625,-35.15625,0.0
104619.800539,-56.640625,-479.98046875,-140.625,-42.48046875,0.0
104619.80444525,-59.08203125,-375.9765625,-51.7578125,-68.84765625,0.0
104619.8083515,-71.77734375,424.31640625,184.5703125,-78.125,0.0
104619.81225775,-24.4140625,-43.9453125,-85.9375,-38.0859375,0.0
104619.816164,-17.08984375,-818.84765625,-304.19921875,-12.20703125,0.0
104619.82007025,-33.69140625,-129.39453125,103.02734375,-38.0859375,0.0
104619.8239765,-46.875,385.25390625,180.17578125,-59.5703125,0.0
104619.848326375,-20.99609375,310.05859375,44.43359375,-30.76171875,0.0
104619.834282416,-6.8359375,97.16796875,8.7890625,-4.8828125,0.0
104619.838188666,-35.64453125,14.16015625,40.0390625,-27.34375,0.0
104619.842094916,-45.41015625,208.49609375,17.578125,-55.17578125,0.0
104619.846001166,-55.6640625,275.390625,-70.3125,-36.62109375,0.0
104619.849907416,-11.23046875,-75.1953125,-159.66796875,-6.8359375,0.0
104619.853813666,-70.3125,-515.13671875,-204.1015625,-23.92578125,0.0
104619.857719916,-63.96484375,-300.78125,-150.87890625,-63.4765625,0.0
104619.861626166,-92.28515625,-438.4765625,-298.828125,-61.5234375,0.0
104619.865532416,-61.5234375,-126.46484375,-85.9375,-35.64453125,0.0
104619.869438666,-58.10546875,202.1484375,152.34375,-21.484375,0.0
104619.873344916,-53.7109375,-201.66015625,-80.56640625,-42.48046875,0.0
104619.850673166,-74.70703125,-50.78125,-118.1640625,-51.26953125,0.0
104619.854579416,-41.50390625,470.703125,89.84375,-30.2734375,0.0
104619.858485666,-31.73828125,317.3828125,61.03515625,-29.296875,0.0
104619.862391916,-31.25,-208.984375,-143.06640625,-46.38671875,0.0
104619.866298166,-39.0625,-2.9296875,-155.2734375,-67.3828125,0.0
104619.870204416,-45.8984375,239.2578125,-115.234375,-61.03515625,0.0
104619.874110666,-7.8125,106.93359375,-98.14453125,-30.76171875,0.0
104619.878016916,-41.9921875,-528.80859375,-299.8046875,-19.53125,0.0
104619.881923166,-70.3125,-700.68359375,-398.92578125,-49.8046875,0.0
104619.885829416,-65.4296875,379.39453125,51.26953125,-62.5,0.0
104619.889735666,-18.5546875,519.53125,80.56640625,-30.76171875,0.0
104619.893641916,-55.17578125,-219.7265625,-164.55078125,-8.30078125,0.0
104619.89610375,-36.1328125,-33.69140625,-111.328125,-22.94921875,0.0
104619.90001,-63.4765625,516.6015625,-21.484375,-41.50390625,0.0
104619.90391625,-31.73828125,265.625,-178.7109375,-26.85546875,0.0
104619.9078225,-49.8046875,-290.52734375,-307.12890625,-13.671875,0.0
104619.91172875,-55.17578125,-162.59765625,-188.4765625,-49.8046875,0.0
104619.915635,-78.125,100.09765625,-220.703125,-77.1484375,0.0
104619.91954125,-50.29296875,43.45703125,-301.7578125,-52.24609375,0.0
104619.9234475,-34.66796875,-561.03515625,-412.59765625,-20.5078125,0.0
104619.92735375,-42.96875,-516.6015625,-226.5625,-33.69140625,0.0
104619.93126,-42.48046875,375.0,56.640625,-53.7109375,0.0
104619.93516625,-36.62109375,450.1953125,-63.96484375,-28.3203125,0.0
104619.9390725,-1.953125,55.17578125,-207.51953125,-16.11328125,0.0
104619.941869,-24.4140625,-63.4765625,-137.6953125,-31.73828125,0.0
104619.94577525,-22.94921875,302.734375,-33.203125,-56.15234375,0.0
104619.9496815,-72.265625,344.23828125,-155.76171875,-57.6171875,0.0
104619.95358775,-32.71484375,140.13671875,-215.8203125,-23.92578125,0.0
104619.957494,-33.69140625,-159.66796875,-204.58984375,-10.25390625,0.0
104619.96140025,-29.296875,-258.30078125,-292.48046875,-44.43359375,0.0
104619.9653065,-70.3125,-364.74609375,-461.42578125,-58.59375,0.0
104619.96921275,-42.48046875,-511.23046875,-403.80859375,-26.85546875,0.0
104619.973119,-59.08203125,-106.4453125,-80.56640625,-17.578125,0.0
104619.97702525,-58.59375,56.640625,-36.1328125,-42.96875,0.0
104619.9809315,-84.9609375,102.5390625,-169.43359375,-67.3828125,0.0
104619.98483775,-61.5234375,359.375,-109.86328125,-51.26953125,0.0
104620.014914125,-48.33984375,368.1640625,-18.5546875,-27.83203125,0.0
104620.018820375,-103.02734375,-50.78125,-177.24609375,-41.015625,0.0
104620.022726625,-96.6796875,-27.83203125,-267.578125,-53.7109375,0.0
104620.026632875,-75.68359375,419.921875,-85.9375,-47.36328125,0.0
104620.030539125,-39.0625,370.60546875,-61.5234375,-14.6484375,0.0
104620.034445375,-72.265625,-299.8046875,-322.75390625,-12.20703125,0.0
104620.038351625,-71.77734375,-717.28515625,-468.75,-42.48046875,0.0
104620.042257875,-128.90625,-400.87890625,-320.3125,-46.38671875,0.0
104620.046164125,-66.40625,242.67578125,-10.25390625,-27.34375,0.0
104620.050070375,-70.3125,-111.328125,-88.8671875,-23.4375,0.0
104620.053976625,-85.44921875,-263.18359375,-207.51953125,-47.8515625,0.0
104620.057882875,-90.8203125,333.984375,-51.7578125,-50.29296875,0.0
104620.063759333,-47.36328125,656.25,92.7734375,-27.34375,0.0
104620.067665583,-63.4765625,18.06640625,-151.3671875,-9.765625,0.0
104620.071571833,-75.1953125,-338.37890625,-292.48046875,-29.78515625,0.0
104620.075478083,-93.75,313.96484375,-47.36328125,-63.96484375,0.0
104620.079384333,-60.05859375,614.2578125,25.87890625,-51.26953125,0.0
104620.083290583,-18.06640625,-172.8515625,-303.7109375,-16.11328125,0.0
104620.087196833,-66.40625,-881.34765625,-500.0,-24.4140625,0.0
104620.091103083,-66.40625,-47.8515625,-98.14453125,-57.12890625,0.0
104620.095009333,-76.66015625,643.5546875,127.44140625,-57.12890625,0.0
104620.098915583,-28.3203125,-143.5546875,-230.46875,-24.90234375,0.0
104620.102821833,-56.640625,-788.0859375,-366.69921875,-2.44140625,0.0
104620.106728083,-63.4765625,68.84765625,19.53125,-38.0859375,0.0
104620.105531875,-78.125,472.65625,48.828125,-52.734375,0.0
104620.109438125,-22.4609375,241.2109375,-75.68359375,-22.94921875,0.0
104620.113344375,-33.69140625,-163.0859375,-134.27734375,-8.7890625,0.0
104620.117250625,-40.52734375,-0.9765625,-21.484375,-40.52734375,0.0
104620.121156875,-64.94140625,303.22265625,-19.53125,-63.96484375,0.0
104620.125063125,-30.76171875,58.59375,-195.80078125,-36.62109375,0.0
104620.128969375,-22.4609375,-455.078125,-316.40625,-7.32421875,0.0
104620.132875625,-27.34375,-484.375,-217.28515625,-15.625,0.0
104620.136781875,-36.1328125,51.7578125,-72.75390625,-31.25,0.0
104620.140688125,-33.203125,-85.44921875,-217.28515625,-4.8828125,0.0
104620.144594375,-15.625,-112.3046875,-103.515625,14.6484375,0.0
104620.148500625,-50.29296875,11.23046875,69.3359375,-15.625,0.0
104620.149062,-44.921875,-78.61328125,-118.65234375,-56.640625,0.0
104620.15296825,-53.22265625,114.2578125,-118.65234375,-59.5703125,0.0
104620.1568745,-10.25390625,396.484375,178.7109375,-32.2265625,0.0
104620.16078075,-32.71484375,83.49609375,126.953125,-16.11328125,0.0
104620.164687,-33.69140625,-207.51953125,-169.921875,-38.57421875,0.0
104620.16859325,-73.2421875,-177.24609375,-296.38671875,-58.10546875,0.0
104620.1724995,-24.4140625,30.2734375,-140.13671875,-37.59765625,0.0
104620.17640575,-18.06640625,52.24609375,37.59765625,-13.18359375,0.0
104620.180312,-33.69140625,-508.30078125,-242.1875,-16.11328125,0.0
104620.18421825,-71.2890625,-645.01953125,-372.0703125,-36.62109375,0.0
104620.1881245,-43.45703125,415.0390625,230.46875,-36.62109375,0.0
104620.19203075,-40.52734375,355.46875,270.5078125,-18.06640625,0.0
104620.1932865,-57.6171875,-257.8125,-37.109375,-33.69140625,0.0
104620.19719275,-62.98828125,141.11328125,73.2421875,-48.828125,0.0
104620.201099,-57.6171875,639.6484375,307.6171875,-27.34375,0.0
104620.20500525,-5.37109375,153.80859375,61.03515625,0.9765625,0.0
104620.2089115,-34.1796875,-453.61328125,-152.34375,-6.8359375,0.0
104620.21281775,-15.625,-247.55859375,-94.23828125,-38.0859375,0.0
104620.216724,-42.48046875,96.19140625,-7.8125,-47.8515625,0.0
104620.22063025,-23.92578125,33.203125,18.06640625,-45.41015625,0.0
104620.2245365,-59.08203125,-674.8046875,-263.18359375,-45.41015625,0.0
104620.22844275,-62.98828125,-350.5859375,-2.44140625,-69.3359375,0.0
104620.232349,-89.35546875,587.890625,397.94921875,-78.61328125,0.0
104620.23625525,-41.50390625,457.51953125,222.16796875,-43.45703125,0.0
104620.235157041,-39.55078125,-166.50390625,11.71875,-3.90625,0.0
104620.239063291,-48.828125,-14.6484375,205.078125,-20.5078125,0.0
104620.242969541,-57.12890625,510.25390625,332.03125,-57.6171875,0.0
104620.246875791,-22.94921875,453.61328125,200.68359375,-44.921875,0.0
104620.250782041,0.48828125,-48.828125,55.17578125,-17.578125,0.0
104620.254688291,-39.0625,-421.38671875,-82.03125,-41.50390625,0.0
104620.258594541,-49.8046875,-130.859375,-64.94140625,-65.4296875,0.0
104620.262500791,-45.8984375,-183.10546875,-194.82421875,-29.78515625,0.0
104620.266407041,0.0,-534.66796875,-247.55859375,-6.34765625,0.0
104620.270313291,-25.87890625,-156.25,183.59375,-20.5078125,0.0
104620.274219541,-40.0390625,212.40234375,255.859375,-35.15625,0.0
104620.278125791,-61.5234375,290.0390625,119.62890625,-43.45703125,0.0
104620.278621291,9.27734375,211.42578125,146.97265625,-26.3671875,0.0
104620.282527541,-6.34765625,56.15234375,237.3046875,-9.765625,0.0
104620.286433791,-13.18359375,42.48046875,180.6640625,-17.08984375,0.0
104620.290340041,-48.33984375,205.078125,78.125,-29.296875,0.0
104620.294246291,-30.76171875,467.28515625,187.01171875,-20.99609375,0.0
104620.298152541,-21.484375,-39.0625,-12.20703125,0.0,0.0
104620.302058791,-12.20703125,-394.53125,-177.24609375,-24.90234375,0.0
104620.305965041,-36.62109375,-498.046875,-252.9296875,-56.15234375,0.0
104620.309871291,-31.25,-268.06640625,-145.01953125,-31.73828125,0.0
104620.313777541,-5.859375,195.80078125,184.08203125,1.46484375,0.0
104620.317683791,-38.0859375,-117.1875,160.15625,-17.08984375,0.0
104620.321590041,-51.26953125,15.625,76.171875,-49.31640625,0.0
104620.324280541,-50.29296875,549.31640625,218.26171875,-44.921875,0.0
104620.328186791,23.4375,539.0625,257.8125,-16.11328125,0.0
104620.332093041,-19.53125,-146.97265625,20.01953125,-9.27734375,0.0
104620.335999291,-34.1796875,-148.92578125,-106.4453125,-29.78515625,0.0
104620.339905541,-68.359375,545.8984375,177.24609375,-29.296875,0.0
104620.343811791,-41.015625,370.60546875,115.234375,-18.5546875,0.0
104620.347718041,-55.6640625,-599.12109375,-370.60546875,-14.16015625,0.0
104620.351624291,-58.10546875,-697.75390625,-383.30078125,-35.64453125,0.0
104620.355530541,-84.9609375,314.453125,133.7890625,-61.5234375,0.0
104620.359436791,-43.9453125,723.6328125,277.83203125,-42.96875,0.0
104620.363343041,-24.4140625,25.87890625,-36.1328125,-24.4140625,0.0
104620.367249291,-41.015625,-413.0859375,-209.47265625,-47.36328125,0.0
104620.393476416,-68.359375,267.08984375,73.2421875,-75.68359375,0.0
104620.397382666,-60.546875,648.92578125,233.3984375,-61.5234375,0.0
104620.401288916,-18.06640625,158.69140625,1.46484375,-32.2265625,0.0
104620.405195166,-56.15234375,-195.80078125,-107.91015625,-29.296875,0.0
104620.409101416,-33.203125,171.38671875,-9.27734375,-42.96875,0.0
104620.413007666,-40.52734375,292.48046875,-85.44921875,-33.69140625,0.0
104620.416913916,-6.8359375,-434.08203125,-368.65234375,2.44140625,0.0
104620.420820166,-29.296875,-743.1640625,-313.96484375,-7.8125,0.0
104620.424726416,-18.06640625,101.07421875,65.91796875,-53.7109375,0.0
104620.428632666,-50.29296875,401.85546875,58.59375,-48.828125,0.0
104620.432538916,-19.53125,251.953125,-55.6640625,-24.90234375,0.0
104620.436445166,-21.484375,89.84375,-5.859375,-23.92578125,0.0
104620.441007,-18.5546875,157.2265625,45.41015625,-47.36328125,0.0
104620.44491325,-50.78125,208.0078125,-147.4609375,-59.08203125,0.0
104620.4488195,-6.34765625,206.54296875,-195.80078125,-35.15625,0.0
104620.45272575,13.671875,238.28125,-13.671875,-21.484375,0.0
104620.456632,-14.16015625,121.09375,0.0,-30.2734375,0.0
104620.46053825,-26.85546875,-250.48828125,-350.5859375,-43.9453125,0.0
104620.4644445,-57.12890625,-367.67578125,-371.09375,-39.0625,0.0
104620.46835075,-11.71875,252.44140625,137.20703125,-9.765625,0.0
104620.472257,-10.7421875,65.91796875,62.98828125,-15.625,0.0
104620.47616325,-20.01953125,-95.703125,-178.22265625,-62.98828125,0.0
104620.4800695,-62.5,225.5859375,-149.4140625,-63.96484375,0.0
104620.48397575,-8.7890625,476.07421875,22.4609375,-38.0859375,0.0
104620.482068416,-37.109375,70.80078125,-48.828125,-30.2734375,0.0
104620.485974666,-37.59765625,-143.06640625,-241.69921875,-46.875,0.0
104620.489880916,-50.78125,293.9453125,-158.203125,-51.26953125,0.0
104620.493787166,-12.6953125,613.28125,64.453125,-26.3671875,0.0
104620.497693416,-19.53125,-52.734375,-201.66015625,-11.71875,0.0
104620.501599666,-27.83203125,-552.24609375,-399.90234375,-29.296875,0.0
104620.505505916,-66.89453125,-158.69140625,-321.2890625,-45.41015625,0.0
104620.509412166,-44.43359375,145.99609375,-266.11328125,-37.109375,0.0
104620.513318416,-7.8125,-188.4765625,-316.40625,-24.90234375,0.0
104620.517224666,-47.36328125,-791.9921875,-436.5234375,-42.96875,0.0
104620.521130916,-61.5234375,-190.4296875,-165.52734375,-65.4296875,0.0
104620.525037166,-40.52734375,693.359375,206.0546875,-47.8515625,0.0
104620.527229666,19.04296875,313.96484375,20.01953125,-20.99609375,0.0
104620.531135916,-23.4375,-324.21875,-275.390625,-21.97265625,0.0
104620.535042166,-27.83203125,94.7265625,-87.890625,-42.48046875,0.0
104620.538948416,-52.24609375,629.39453125,154.78515625,-44.43359375,0.0
104620.542854666,-12.6953125,338.8671875,-9.765625,-17.578125,0.0
104620.546760916,-25.390625,-503.41796875,-399.90234375,-3.90625,0.0
104620.550667166,-26.85546875,-411.62109375,-307.12890625,-33.69140625,0.0
104620.554573416,-66.40625,204.1015625,-170.41015625,-53.7109375,0.0
104620.558479666,-20.5078125,-153.80859375,-380.859375,-23.92578125,0.0
104620.562385916,-13.18359375,-720.21484375,-420.41015625,-12.6953125,0.0
104620.566292166,-16.6015625,-79.1015625,0.0,-45.41015625,0.0
104620.570198416,-20.01953125,423.828125,76.66015625,-62.98828125,0.0
104620.573514208,-18.5546875,327.1484375,-108.88671875,-40.0390625,0.0
104620.577420458,3.90625,123.046875,-124.51171875,-6.8359375,0.0
104620.581326708,-35.15625,64.453125,-22.4609375,-27.34375,0.0
104620.585232958,-55.6640625,213.8671875,-71.2890625,-68.359375,0.0
104620.589139208,-59.08203125,270.01953125,-156.25,-65.91796875,0.0
104620.593045458,-11.23046875,57.12890625,-254.39453125,-27.34375,0.0
104620.596951708,-47.8515625,-435.546875,-349.609375,-11.71875,0.0
104620.600857958,-30.2734375,-255.37109375,-333.984375,-38.57421875,0.0
104620.604764208,-48.33984375,-329.1015625,-347.65625,-54.19921875,0.0
104620.608670458,-13.671875,-299.8046875,-208.49609375,-43.9453125,0.0
104620.612576708,-28.80859375,-67.3828125,-110.83984375,-26.3671875,0.0
104620.616482958,-32.2265625,-176.7578125,-207.51953125,-42.48046875,0.0
104620.617682583,-53.7109375,140.13671875,-210.9375,-62.5,0.0
104620.621588833,-23.92578125,613.76953125,121.09375,-47.36328125,0.0
104620.625495083,-18.06640625,338.37890625,88.8671875,-15.13671875,0.0
104620.629401333,-40.0390625,-150.87890625,-212.40234375,-14.6484375,0.0
104620.633307583,-59.5703125,71.2890625,-246.09375,-52.24609375,0.0
104620.637213833,-41.9921875,304.19921875,-174.31640625,-60.546875,0.0
104620.641120083,-16.6015625,147.4609375,-217.28515625,-38.0859375,0.0
104620.645026333,-64.453125,-541.9921875,-414.55078125,-31.25,0.0
104620.648932583,-48.33984375,-657.2265625,-420.41015625,-43.45703125,0.0
104620.652838833,-65.4296875,416.50390625,19.04296875,-51.26953125,0.0
104620.656745083,-20.5078125,563.96484375,114.74609375,-45.41015625,0.0
104620.660651333,-43.45703125,-190.91796875,-173.828125,-38.0859375,0.0
104620.667548208,-47.8515625,-266.6015625,-321.2890625,-57.6171875,0.0
104620.671454458,-38.0859375,395.01953125,-95.21484375,-55.17578125,0.0
104620.675360708,1.953125,548.33984375,85.9375,-28.3203125,0.0
104620.679266958,-39.55078125,-76.66015625,-169.921875,-12.20703125,0.0
104620.683173208,-29.296875,-195.3125,-295.41015625,-38.57421875,0.0
104620.687079458,-50.78125,88.37890625,-275.87890625,-71.77734375,0.0
104620.690985708,-56.15234375,149.4140625,-311.5234375,-44.921875,0.0
104620.694891958,-37.59765625,-503.41796875,-418.45703125,-12.6953125,0.0
104620.698798208,-48.33984375,-515.625,-232.91015625,-32.2265625,0.0
104620.702704458,-70.3125,379.8828125,21.484375,-51.26953125,0.0
104620.706610708,-59.08203125,483.3984375,-17.578125,-38.57421875,0.0
104620.710516958,-23.92578125,61.5234375,-175.29296875,-22.94921875,0.0
104620.731381416,-53.22265625,-196.77734375,-204.58984375,-27.34375,0.0
104620.713228125,-34.1796875,214.35546875,-85.44921875,-51.26953125,0.0
104620.717134375,-72.75390625,328.61328125,-200.68359375,-55.17578125,0.0
104620.721040625,-10.7421875,4.39453125,-347.16796875,-26.3671875,0.0
104620.724946875,-19.04296875,-110.83984375,-225.09765625,1.46484375,0.0
104620.728853125,-34.66796875,-111.81640625,-276.3671875,-20.99609375,0.0
104620.732759375,-72.265625,-272.94921875,-458.0078125,-52.24609375,0.0
104620.736665625,-37.109375,-457.51953125,-396.484375,-47.36328125,0.0
104620.740571875,-27.83203125,-68.84765625,-84.9609375,-41.50390625,0.0
104620.744478125,-26.3671875,138.18359375,-1.953125,-61.5234375,0.0
104620.748384375,-62.01171875,193.84765625,-176.7578125,-77.63671875,0.0
104620.752290625,-49.31640625,435.05859375,-80.56640625,-55.6640625,0.0
104620.754949458,-12.20703125,377.44140625,56.640625,-28.80859375,0.0
104620.758855708,-39.0625,-10.25390625,-155.2734375,-34.1796875,0.0
104620.762761958,-58.59375,25.390625,-312.5,-53.22265625,0.0
104620.766668208,-46.38671875,439.453125,-136.71875,-49.8046875,0.0
104620.770574458,-2.9296875,446.2890625,22.94921875,-18.5546875,0.0
104620.774480708,-55.17578125,-216.796875,-262.20703125,-17.08984375,0.0
104620.778386958,-66.40625,-723.14453125,-475.09765625,-46.38671875,0.0
104620.782293208,-83.984375,-421.875,-367.67578125,-46.38671875,0.0
104620.786199458,-1.46484375,225.09765625,-183.10546875,-11.71875,0.0
104620.790105708,-17.578125,-148.4375,-268.5546875,-14.6484375,0.0
104620.794011958,-32.2265625,-290.0390625,-307.6171875,-53.7109375,0.0
104620.797918208,-35.64453125,351.5625,-121.58203125,-62.5,0.0
104620.795938625,-5.37109375,667.48046875,88.8671875,-49.8046875,0.0
104620.799844875,-25.390625,46.875,-129.8828125,-31.73828125,0.0
104620.803751125,-32.71484375,-363.28125,-400.87890625,-41.9921875,0.0
104620.807657375,-43.9453125,285.15625,-199.21875,-58.10546875,0.0
104620.811563625,-40.52734375,690.4296875,-25.390625,-41.9921875,0.0
104620.815469875,-14.16015625,-165.0390625,-350.5859375,-11.23046875,0.0
104620.819376125,-40.52734375,-746.09375,-497.55859375,-16.6015625,0.0
104620.823282375,-28.80859375,146.484375,-114.74609375,-45.41015625,0.0
104620.827188625,-46.38671875,393.5546875,-201.171875,-36.62109375,0.0
104620.831094875,-17.08984375,-113.28125,-353.02734375,-10.7421875,0.0
104620.835001125,-30.2734375,-320.3125,-230.46875,-17.08984375,0.0
104620.838907375,-32.71484375,197.265625,-89.84375,-58.10546875,0.0
104620.841654625,-63.96484375,527.83203125,-80.56640625,-60.05859375,0.0
104620.845560875,0.0,302.734375,-208.984375,-25.390625,0.0
104620.849467125,-8.7890625,-84.9609375,-283.69140625,-8.7890625,0.0
104620.853373375,-24.4140625,57.6171875,-189.453125,-42.96875,0.0
104620.857279625,-44.43359375,398.4375,-174.31640625,-69.82421875,0.0
104620.861185875,-20.5078125,135.25390625,-275.87890625,-49.31640625,0.0
104620.865092125,-23.92578125,-393.06640625,-358.88671875,-20.99609375,0.0
104620.868998375,-27.83203125,-362.3046875,-291.015625,-27.34375,0.0
104620.872904625,-52.734375,133.30078125,-230.95703125,-59.5703125,0.0
104620.876810875,-53.22265625,14.6484375,-288.0859375,-45.41015625,0.0
104620.880717125,-1.953125,-131.8359375,-256.8359375,-5.859375,0.0
104620.884623375,-28.3203125,-181.15234375,-233.3984375,-9.765625,0.0
104620.887213625,-29.78515625,-62.5,-298.33984375,-41.9921875,0.0
104620.891119875,-72.265625,261.71875,-260.25390625,-45.41015625,0.0
104620.895026125,-18.5546875,428.22265625,13.18359375,-22.94921875,0.0
104620.898932375,-26.85546875,53.7109375,-114.2578125,-12.20703125,0.0
104620.902838625,-28.3203125,-145.01953125,-307.12890625,-42.96875,0.0
104620.906744875,-56.15234375,-109.86328125,-369.62890625,-63.4765625,0.0
104620.910651125,-31.25,-5.37109375,-312.01171875,-36.62109375,0.0
104620.914557375,-41.015625,11.23046875,-211.42578125,-15.625,0.0
104620.918463625,-38.0859375,-505.37109375,-415.0390625,-30.76171875,0.0
104620.922369875,-58.59375,-556.15234375,-424.8046875,-45.41015625,0.0
104620.926276125,-26.3671875,515.13671875,104.4921875,-31.25,0.0
104620.930182375,6.8359375,415.52734375,81.54296875,-6.8359375,0.0
104620.933007583,-20.99609375,-225.09765625,-228.02734375,-23.4375,0.0
104620.936913833,-55.17578125,-79.58984375,-339.84375,-49.8046875,0.0
104620.940820083,-37.59765625,422.8515625,-152.34375,-37.109375,0.0
104620.944726333,24.90234375,396.97265625,25.87890625,-8.30078125,0.0
104620.948632583,-15.13671875,-221.6796875,-224.12109375,-19.04296875,0.0
104620.952538833,-38.57421875,-208.984375,-349.609375,-49.8046875,0.0
104620.956445083,-69.3359375,130.859375,-301.26953125,-49.31640625,0.0
104620.960351333,-19.04296875,99.609375,-330.078125,-15.13671875,0.0
104620.964257583,-35.64453125,-647.4609375,-428.7109375,2.9296875,0.0
104620.968163833,-30.2734375,-346.6796875,-203.125,-38.0859375,0.0
104620.972070083,-64.94140625,543.9453125,-7.8125,-54.19921875,0.0
104620.975976333,-49.8046875,437.01171875,-54.6875,-21.97265625,0.0
104620.97729475,-61.03515625,-75.68359375,-214.84375,-5.859375,0.0
104620.981201,-66.89453125,18.06640625,-162.109375,-31.25,0.0
104620.98510725,-85.9375,525.87890625,61.5234375,-43.45703125,0.0
104620.9890135,-54.6875,431.640625,-81.54296875,-21.484375,0.0
104620.99291975,-18.5546875,-217.28515625,-376.46484375,3.90625,0.0
104620.996826,-38.0859375,-510.7421875,-375.9765625,-13.671875,0.0
104621.00073225,-43.9453125,39.0625,-241.69921875,-47.36328125,0.0
104621.0046385,-42.96875,95.703125,-314.94140625,-33.203125,0.0
104621.00854475,2.44140625,-537.109375,-456.0546875,-3.90625,0.0
104621.012451,-44.921875,-196.2890625,-174.8046875,-18.5546875,0.0
104621.01635725,-59.08203125,292.96875,-106.4453125,-56.15234375,0.0
104621.0202635,-59.5703125,369.140625,-214.84375,-62.5,0.0
104621.022945833,-6.34765625,410.15625,-159.66796875,-44.921875,0.0
104621.026852083,-41.50390625,130.859375,-169.921875,-37.109375,0.0
104621.030758333,-47.8515625,26.3671875,-260.25390625,-57.6171875,0.0
104621.034664583,-72.75390625,267.08984375,-277.83203125,-71.77734375,0.0
104621.038570833,-17.578125,446.77734375,-188.96484375,-34.66796875,0.0
104621.042477083,-1.46484375,-90.33203125,-303.7109375,-11.71875,0.0
104621.046383333,-17.578125,-448.73046875,-392.08984375,-41.9921875,0.0
104621.050289583,-37.109375,-567.87109375,-427.734375,-48.33984375,0.0
104621.054195833,-33.69140625,-236.328125,-279.296875,-26.3671875,0.0
104621.058102083,-5.37109375,372.55859375,-81.54296875,-3.41796875,0.0
104621.062008333,-34.1796875,-110.3515625,-284.1796875,-13.671875,0.0
104621.065914583,-43.9453125,-92.7734375,-365.234375,-39.55078125,0.0
104621.093656666,-47.8515625,535.64453125,-126.46484375,-26.3671875,0.0
104621.097562916,0.48828125,565.4296875,-72.75390625,-7.8125,0.0
104621.101469166,-38.0859375,-155.76171875,-339.35546875,-15.13671875,0.0
104621.105375416,-49.31640625,-187.5,-409.1796875,-43.9453125,0.0
104621.109281666,-87.890625,410.15625,-267.578125,-49.31640625,0.0
104621.113187916,-17.08984375,334.9609375,-294.43359375,-34.1796875,0.0
104621.117094166,-25.87890625,-538.57421875,-500.0,-5.859375,0.0
104621.121000416,-45.41015625,-731.4453125,-518.5546875,-7.32421875,0.0
104621.124906666,-49.31640625,283.69140625,-193.359375,-47.8515625,0.0
104621.128812916,-13.671875,530.76171875,-215.8203125,-34.1796875,0.0
104621.132719166,0.48828125,-197.265625,-406.73828125,-3.90625,0.0
104621.136625416,7.32421875,-250.9765625,-278.80859375,-28.80859375,0.0
104621.138811333,-23.92578125,274.90234375,-202.63671875,-53.7109375,0.0
104621.142717583,-35.64453125,414.55078125,-255.37109375,-33.203125,0.0
104621.146623833,4.39453125,49.8046875,-322.265625,2.9296875,0.0
104621.150530083,-21.97265625,-224.609375,-298.828125,-9.27734375,0.0
104621.154436333,-36.62109375,175.78125,-274.90234375,-49.8046875,0.0
104621.158342583,-59.5703125,319.82421875,-330.56640625,-48.828125,0.0
104621.162248833,-10.7421875,-419.43359375,-458.49609375,-12.6953125,0.0
104621.166155083,-40.52734375,-813.4765625,-408.203125,-9.27734375,0.0
104621.170061333,-26.3671875,49.8046875,-204.58984375,-40.52734375,0.0
104621.173967583,-42.96875,388.18359375,-294.43359375,-52.24609375,0.0
104621.177873833,-8.7890625,210.9375,-321.77734375,-23.92578125,0.0
104621.181780083,-19.53125,11.23046875,-267.578125,3.41796875,0.0
104621.187910333,-38.57421875,-188.96484375,-321.77734375,-19.04296875,0.0
104621.191816583,-63.96484375,-57.6171875,-411.1328125,-49.8046875,0.0
104621.195722833,-25.87890625,282.2265625,-311.03515625,-28.3203125,0.0
104621.199629083,-17.08984375,265.13671875,-197.265625,5.859375,0.0
104621.203535333,-34.1796875,33.203125,-272.94921875,-11.71875,0.0
104621.207441583,-36.1328125,-209.47265625,-460.9375,-37.59765625,0.0
104621.211347833,-17.08984375,-167.48046875,-437.01171875,-20.5078125,0.0
104621.215254083,31.25,287.109375,-192.87109375,-1.953125,0.0
104621.219160333,0.0,110.83984375,-267.578125,1.46484375,0.0
104621.223066583,-27.34375,-303.7109375,-425.29296875,-27.34375,0.0
104621.226972833,-71.77734375,-70.80078125,-361.328125,-48.828125,0.0
104621.230879083,-10.7421875,539.0625,-179.19921875,-28.80859375,0.0
104621.237850875,-34.1796875,71.77734375,-320.3125,-12.20703125,0.0
104621.241757125,-45.41015625,-117.67578125,-376.46484375,-34.1796875,0.0
104621.245663375,-67.3828125,179.6875,-359.375,-52.734375,0.0
104621.249569625,-16.11328125,322.265625,-330.56640625,-31.73828125,0.0
104621.253475875,-25.390625,41.9921875,-351.5625,-10.25390625,0.0
104621.257382125,-38.57421875,-456.0546875,-447.75390625,-30.76171875,0.0
104621.261288375,-66.40625,-293.9453125,-427.734375,-45.8984375,0.0
104621.265194625,-29.78515625,176.7578125,-332.51953125,-31.25,0.0
104621.269100875,17.578125,93.75,-352.5390625,-2.9296875,0.0
104621.273007125,-19.04296875,-600.5859375,-458.984375,-8.7890625,0.0
104621.276913375,-32.71484375,-100.09765625,-312.98828125,-41.50390625,0.0
104621.280819625,-29.78515625,709.47265625,-229.98046875,-41.50390625,0.0
104621.285296875,5.37109375,211.9140625,-412.59765625,-17.08984375,0.0
104621.289203125,-45.8984375,-365.72265625,-479.98046875,-9.765625,0.0
104621.293109375,-41.50390625,108.88671875,-322.75390625,-27.34375,0.0
104621.297015625,-53.22265625,631.34765625,-288.0859375,-35.64453125,0.0
104621.300921875,-19.04296875,278.3203125,-394.53125,-14.16015625,0.0
104621.302654958,-38.0859375,-527.83203125,-540.52734375,-6.34765625,0.0
104621.306561208,-41.9921875,-472.65625,-478.02734375,-44.43359375,0.0
104621.310467458,-72.75390625,222.16796875,-337.890625,-60.546875,0.0
104621.314373708,-14.6484375,53.22265625,-475.09765625,-25.390625,0.0
104621.318279958,-0.48828125,-787.59765625,-615.72265625,8.30078125,0.0
104621.322186208,-14.16015625,-241.2109375,-333.49609375,-16.11328125,0.0
104621.326092458,-38.57421875,384.765625,-339.84375,-61.5234375,0.0
104621.303234333,-39.55078125,362.3046875,-387.20703125,-52.734375,0.0
104621.307140583,-11.71875,104.4921875,-379.8828125,-15.13671875,0.0
104621.311046833,-35.15625,-126.953125,-415.0390625,-11.71875,0.0
104621.314953083,-40.52734375,86.42578125,-419.43359375,-42.48046875,0.0
104621.318859333,-57.6171875,279.78515625,-438.4765625,-47.8515625,0.0
104621.322765583,1.953125,19.53125,-487.79296875,-25.390625,0.0
104621.326671833,-25.87890625,-512.20703125,-526.3671875,-25.390625,0.0
104621.330578083,-24.4140625,-419.43359375,-518.06640625,-48.828125,0.0
104621.334484333,-49.31640625,-511.23046875,-543.45703125,-58.10546875,0.0
104621.338390583,-4.39453125,-198.73046875,-414.0625,-37.109375,0.0
104621.342296833,-6.34765625,144.04296875,-369.140625,0.9765625,0.0
104621.346203083,-17.578125,-161.62109375,-479.4921875,-11.23046875,0.0
104621.391713416,-59.5703125,50.78125,-496.58203125,-44.43359375,0.0
104621.377781333,-21.97265625,534.1796875,-349.12109375,-28.80859375,0.0
104621.381687583,2.44140625,296.38671875,-377.44140625,2.9296875,0.0
104621.385593833,-13.18359375,-234.375,-476.07421875,-6.8359375,0.0
104621.389500083,-24.4140625,-2.44140625,-505.37109375,-21.484375,0.0
104621.393406333,-10.25390625,277.34375,-442.87109375,-7.8125,0.0
104621.397312583,27.83203125,-8.7890625,-435.546875,6.8359375,0.0
104621.401218833,-13.18359375,-703.61328125,-616.69921875,-7.32421875,0.0
104621.405125083,-17.578125,-679.6875,-624.0234375,-40.0390625,0.0
104621.409031333,-29.78515625,383.30078125,-334.47265625,-39.55078125,0.0
104621.412937583,10.7421875,340.33203125,-435.546875,-14.6484375,0.0
104621.416843833,-27.34375,-471.19140625,-538.0859375,-1.46484375,0.0
104621.394058291,-36.62109375,-183.59375,-424.8046875,-27.34375,0.0
104621.397964541,-52.24609375,511.71875,-357.91015625,-44.921875,0.0
104621.401870791,17.08984375,477.5390625,-426.7578125,-10.7421875,0.0
104621.405777041,2.44140625,-219.7265625,-524.4140625,-10.25390625,0.0
104621.409683291,-38.0859375,-238.76953125,-468.75,-48.33984375,0.0
104621.413589541,-65.91796875,71.2890625,-513.18359375,-60.546875,0.0
104621.417495791,-28.3203125,89.84375,-498.046875,-46.875,0.0
104621.421402041,-22.94921875,-528.3203125,-616.69921875,-12.20703125,0.0
104621.425308291,-42.96875,-605.46875,-539.55078125,-29.78515625,0.0
104621.429214541,-21.484375,346.19140625,-358.88671875,-67.87109375,0.0
104621.433120791,-51.7578125,490.72265625,-437.01171875,-57.6171875,0.0
104621.437027041,-31.25,75.68359375,-499.51171875,-31.73828125,0.0
104621.439532875,-52.734375,-104.4921875,-453.61328125,-38.0859375,0.0
104621.443439125,-60.05859375,-2.44140625,-481.93359375,-66.40625,0.0
104621.447345375,-76.171875,-0.9765625,-565.91796875,-62.98828125,0.0
104621.451251625,-17.578125,130.37109375,-498.046875,-40.52734375,0.0
104621.455157875,-27.34375,-30.76171875,-463.8671875,-25.87890625,0.0
104621.459064125,-29.78515625,-245.60546875,-534.66796875,-43.45703125,0.0
104621.462970375,-79.58984375,-319.82421875,-611.328125,-57.12890625,0.0
104621.466876625,-41.50390625,-421.875,-615.234375,-27.34375,0.0
104621.470782875,-28.3203125,-121.09375,-408.203125,-11.71875,0.0
104621.474689125,-38.0859375,45.8984375,-419.43359375,-43.45703125,0.0
104621.478595375,-64.94140625,91.796875,-469.23828125,-66.40625,0.0
104621.482501625,-29.296875,391.6015625,-374.0234375,-43.9453125,0.0
104621.509684166,-4.39453125,363.28125,-381.34765625,-10.7421875,0.0
104621.513590416,-29.296875,-59.5703125,-479.98046875,-26.3671875,0.0
104621.517496666,-47.8515625,21.484375,-481.4453125,-52.734375,0.0
104621.521402916,-57.6171875,376.46484375,-395.99609375,-45.8984375,0.0
104621.525309166,1.953125,127.44140625,-499.51171875,-18.06640625,0.0
104621.529215416,-44.43359375,-483.88671875,-574.70703125,-10.25390625,0.0
104621.533121666,-46.38671875,-813.4765625,-631.34765625,-38.0859375,0.0
104621.537027916,-69.3359375,-364.2578125,-541.015625,-57.12890625,0.0
104621.540934166,-18.06640625,479.4921875,-352.05078125,-36.1328125,0.0
104621.544840416,-33.203125,-27.83203125,-493.65234375,-23.92578125,0.0
104621.548746666,-41.50390625,-266.6015625,-536.1328125,-47.36328125,0.0
104621.552652916,-65.91796875,400.87890625,-399.4140625,-47.8515625,0.0
104621.55551,-33.69140625,560.546875,-414.55078125,-20.5078125,0.0
104621.55941625,-26.3671875,-165.0390625,-605.46875,-5.859375,0.0
104621.5633225,-27.83203125,-418.9453125,-627.44140625,-25.390625,0.0
104621.56722875,-59.08203125,248.53515625,-479.4921875,-50.29296875,0.0
104621.571135,-45.8984375,666.50390625,-413.0859375,-54.19921875,0.0
104621.57504125,-6.34765625,-83.0078125,-628.41796875,-36.62109375,0.0
104621.5789475,-45.41015625,-901.85546875,-770.5078125,-46.38671875,0.0
104621.58285375,-48.33984375,-202.1484375,-529.296875,-69.82421875,0.0
104621.58676,-52.24609375,594.7265625,-403.80859375,-46.38671875,0.0
104621.59066625,-6.8359375,-2.9296875,-560.546875,-12.20703125,0.0
104621.5945725,-35.64453125,-682.6171875,-639.6484375,-11.71875,0.0
104621.59847875,-31.73828125,42.48046875,-461.9140625,-32.71484375,0.0
104621.598361541,-50.78125,487.79296875,-461.42578125,-26.3671875,0.0
104621.602267791,-22.94921875,280.76171875,-521.484375,-0.48828125,0.0
104621.606174041,-33.69140625,-103.02734375,-500.48828125,2.44140625,0.0
104621.610080291,-27.83203125,-12.6953125,-489.74609375,-24.90234375,0.0
104621.613986541,-66.89453125,293.45703125,-537.109375,-45.8984375,0.0
104621.617892791,-19.53125,119.140625,-564.94140625,-34.66796875,0.0
104621.621799041,8.7890625,-407.2265625,-599.12109375,-10.25390625,0.0
104621.625705291,-32.2265625,-429.19921875,-554.19921875,-27.83203125,0.0
104621.629611541,-31.73828125,70.80078125,-549.8046875,-60.546875,0.0
104621.633517791,-29.78515625,-165.0390625,-604.98046875,-43.45703125,0.0
104621.637424041,-2.9296875,-172.36328125,-484.86328125,-25.87890625,0.0
104621.641330291,-30.2734375,73.2421875,-457.03125,-40.0390625,0.0
104621.643843083,-51.7578125,35.15625,-580.56640625,-56.15234375,0.0
104621.647749333,-71.77734375,200.68359375,-571.77734375,-51.7578125,0.0
104621.651655583,-16.6015625,391.11328125,-455.078125,-25.87890625,0.0
104621.655561833,-28.80859375,62.5,-505.859375,-21.97265625,0.0
104621.659468083,-23.4375,-136.23046875,-568.84765625,-44.921875,0.0
104621.663374333,-54.6875,-112.79296875,-628.90625,-47.36328125,0.0
104621.667280583,3.41796875,86.9140625,-553.7109375,-23.92578125,0.0
104621.671186833,-6.8359375,122.0703125,-496.09375,-13.18359375,0.0
104621.675093083,-43.45703125,-516.6015625,-681.15234375,-37.59765625,0.0
104621.678999333,-67.3828125,-613.76953125,-724.609375,-59.5703125,0.0
104621.682905583,-33.69140625,428.22265625,-435.05859375,-47.8515625,0.0
104621.686811833,-7.8125,254.8828125,-540.0390625,-18.06640625,0.0
104621.734641083,-27.83203125,-389.6484375,-627.44140625,-24.4140625,0.0
104621.718159125,-42.48046875,50.29296875,-517.08984375,-48.33984375,0.0
104621.722065375,-41.9921875,645.01953125,-434.5703125,-44.921875,0.0
104621.725971625,-5.859375,372.0703125,-523.4375,-22.94921875,0.0
104621.729877875,-45.8984375,-393.5546875,-671.875,-22.4609375,0.0
104621.733784125,-34.66796875,-344.7265625,-646.97265625,-53.22265625,0.0
104621.737690375,-63.96484375,62.01171875,-586.42578125,-47.36328125,0.0
104621.741596625,-13.18359375,46.875,-609.375,-20.5078125,0.0
104621.745502875,-20.01953125,-674.31640625,-732.91015625,-6.34765625,0.0
104621.749409125,-25.87890625,-453.61328125,-604.00390625,-18.06640625,0.0
104621.753315375,-59.08203125,538.57421875,-450.1953125,-38.57421875,0.0
104621.757221625,-11.71875,472.65625,-561.5234375,-29.78515625,0.0
104621.735797583,-11.23046875,-161.62109375,-662.109375,-8.7890625,0.0
104621.739703833,-36.62109375,-52.24609375,-530.2734375,-24.90234375,0.0
104621.743610083,-55.6640625,275.87890625,-560.05859375,-49.31640625,0.0
104621.747516333,-22.4609375,136.71875,-640.13671875,-30.2734375,0.0
104621.751422583,0.9765625,-116.69921875,-656.73828125,0.48828125,0.0
104621.755328833,-30.2734375,-394.53125,-662.59765625,-29.78515625,0.0
104621.759235083,-41.015625,-195.80078125,-643.06640625,-70.80078125,0.0
104621.763141333,-50.29296875,-212.890625,-709.47265625,-42.96875,0.0
104621.767047583,-5.859375,-527.34375,-730.95703125,-17.08984375,0.0
104621.770953833,-32.2265625,-198.73046875,-535.64453125,-33.69140625,0.0
104621.774860083,-38.57421875,239.2578125,-529.78515625,-54.6875,0.0
104621.778766333,-73.2421875,171.875,-600.5859375,-50.78125,0.0
104621.782256,-12.6953125,172.36328125,-542.96875,-24.90234375,0.0
104621.78616225,-15.13671875,107.91015625,-518.06640625,-14.16015625,0.0
104621.7900685,-22.4609375,-27.34375,-579.58984375,-31.25,0.0
104621.79397475,-47.36328125,173.828125,-591.30859375,-40.0390625,0.0
104621.797881,-17.08984375,332.51953125,-550.78125,-25.390625,0.0
104621.80178725,-23.92578125,-166.9921875,-659.66796875,-7.32421875,0.0
104621.8056935,-37.109375,-496.58203125,-673.33984375,-19.53125,0.0
104621.80959975,-61.03515625,-660.15625,-706.54296875,-24.90234375,0.0
104621.813506,-44.43359375,-280.2734375,-584.9609375,-25.390625,0.0
104621.81741225,-11.23046875,313.96484375,-475.5859375,-22.94921875,0.0
104621.8213185,-47.8515625,-151.3671875,-589.84375,-33.69140625,0.0
104621.82522475,-43.9453125,-61.5234375,-608.3984375,-61.5234375,0.0
104621.831003875,-61.5234375,539.55078125,-467.28515625,-44.921875,0.0
104621.834910125,-5.37109375,583.984375,-470.703125,-17.08984375,0.0
104621.838816375,-24.90234375,-196.77734375,-660.64453125,-11.23046875,0.0
104621.842722625,-35.15625,-190.4296875,-621.09375,-28.3203125,0.0
104621.846628875,-65.4296875,475.5859375,-518.06640625,-41.50390625,0.0
104621.850535125,-17.08984375,290.0390625,-599.609375,-27.83203125,0.0
104621.854441375,-42.48046875,-536.1328125,-734.375,-5.37109375,0.0
104621.858347625,-37.109375,-813.4765625,-792.48046875,-8.30078125,0.0
104621.862253875,-48.33984375,-10.7421875,-562.5,-29.296875,0.0
104621.866160125,-20.5078125,594.7265625,-461.42578125,-26.85546875,0.0
104621.870066375,-10.25390625,5.37109375,-593.75,-17.578125,0.0
104621.873972625,-42.48046875,-284.1796875,-567.87109375,-33.69140625,0.0
104621.875992041,-58.10546875,325.68359375,-490.72265625,-60.546875,0.0
104621.879898291,-60.05859375,609.86328125,-505.37109375,-45.41015625,0.0
104621.883804541,-37.59765625,150.390625,-594.7265625,-11.71875,0.0
104621.887710791,-69.82421875,-192.87109375,-548.33984375,-28.3203125,0.0
104621.891617041,-50.78125,156.73828125,-547.36328125,-57.12890625,0.0
104621.895523291,-65.4296875,246.09375,-621.09375,-47.8515625,0.0
104621.899429541,-26.85546875,-424.8046875,-709.9609375,-15.13671875,0.0
104621.903335791,-61.5234375,-852.05078125,-683.10546875,-6.34765625,0.0
104621.907242041,-49.8046875,29.78515625,-480.95703125,-33.203125,0.0
104621.911148291,-67.3828125,417.96875,-539.0625,-41.015625,0.0
104621.915054541,-27.83203125,32.71484375,-655.76171875,-19.53125,0.0
104621.918960791,-22.94921875,-231.93359375,-613.76953125,-13.671875,0.0
104621.921971916,-30.76171875,69.82421875,-480.95703125,-40.52734375,0.0
104621.925878166,-52.24609375,257.8125,-565.91796875,-55.17578125,0.0
104621.929784416,-19.04296875,255.37109375,-604.4921875,-35.15625,0.0
104621.933690666,-7.32421875,175.78125,-510.7421875,-11.23046875,0.0
104621.937596916,-33.69140625,31.73828125,-520.5078125,-26.3671875,0.0
104621.941503166,-49.8046875,-179.6875,-687.5,-51.26953125,0.0
104621.945409416,-48.33984375,-166.9921875,-667.96875,-35.15625,0.0
104621.949315666,-14.16015625,227.05078125,-489.2578125,-15.625,0.0
104621.953221916,-68.359375,30.76171875,-523.92578125,-15.13671875,0.0
104621.957128166,-63.96484375,-313.4765625,-621.09375,-32.71484375,0.0
104621.961034416,-85.9375,-95.703125,-595.21484375,-36.1328125,0.0
104621.964940666,-34.66796875,508.30078125,-458.0078125,-15.625,0.0
104621.99069425,-52.24609375,-193.84765625,-600.09765625,-10.25390625,0.0
104621.9946005,-57.12890625,-512.6953125,-632.8125,-45.41015625,0.0
104621.99850675,-60.546875,175.29296875,-503.90625,-63.4765625,0.0
104622.002413,-2.44140625,556.640625,-449.70703125,-41.9921875,0.0
104622.00631925,-21.484375,97.65625,-559.5703125,-19.53125,0.0
104622.0102255,-33.203125,-534.1796875,-653.80859375,-25.87890625,0.0
104622.01413175,-46.38671875,-325.1953125,-618.1640625,-42.96875,0.0
104622.018038,-23.4375,151.3671875,-539.0625,-29.296875,0.0
104622.02194425,-3.41796875,18.06640625,-557.6171875,-1.953125,0.0
104622.0258505,-49.8046875,-654.78515625,-674.31640625,-10.25390625,0.0
104622.02975675,-63.4765625,-227.05078125,-541.9921875,-57.6171875,0.0
104622.033663,-59.08203125,680.6640625,-404.78515625,-57.12890625,0.0
104622.04708425,5.37109375,312.5,-552.734375,-20.5078125,0.0
104622.0509905,-32.2265625,-393.5546875,-657.71484375,-25.87890625,0.0
104622.05489675,-46.38671875,65.91796875,-468.26171875,-62.5,0.0
104622.058803,-75.1953125,466.796875,-491.2109375,-60.05859375,0.0
104622.06270925,-33.69140625,77.1484375,-623.046875,-27.83203125,0.0
104622.0666155,-55.17578125,-625.48828125,-691.40625,-24.90234375,0.0
104622.07052175,-55.6640625,-464.84375,-583.0078125,-51.7578125,0.0
104622.074428,-74.21875,409.66796875,-442.87109375,-61.5234375,0.0
104622.07833425,-38.0859375,50.29296875,-628.41796875,-40.52734375,0.0
104622.0822405,-32.2265625,-755.37109375,-729.98046875,-27.83203125,0.0
104622.08614675,-35.64453125,-196.77734375,-484.86328125,-50.78125,0.0
104622.090053,-45.41015625,371.58203125,-491.69921875,-66.40625,0.0
104622.070371166,-23.92578125,188.4765625,-575.68359375,-35.64453125,0.0
104622.074277416,27.83203125,-94.7265625,-551.7578125,-2.44140625,0.0
104622.078183666,-14.16015625,-74.21875,-487.79296875,-8.7890625,0.0
104622.082089916,-41.9921875,163.57421875,-520.5078125,-28.3203125,0.0
104622.085996166,-53.7109375,279.296875,-560.546875,-29.296875,0.0
104622.089902416,-19.53125,-94.7265625,-613.76953125,-15.13671875,0.0
104622.093808666,-52.734375,-561.5234375,-628.90625,-19.53125,0.0
104622.097714916,-42.48046875,-329.58984375,-603.02734375,-52.24609375,0.0
104622.101621166,-59.08203125,-495.60546875,-660.64453125,-61.5234375,0.0
104622.105527416,-17.578125,-246.09375,-533.69140625,-41.015625,0.0
104622.109433666,-30.2734375,114.74609375,-471.6796875,-26.85546875,0.0
104622.113339916,-20.01953125,-187.01171875,-586.9140625,-40.52734375,0.0
104622.11962725,-53.7109375,79.1015625,-573.2421875,-54.19921875,0.0
104622.1235335,-41.9921875,559.5703125,-420.41015625,-33.69140625,0.0
104622.12743975,-20.01953125,328.125,-466.796875,-8.7890625,0.0
104622.131346,-45.8984375,-296.38671875,-589.84375,-27.34375,0.0
104622.13525225,-59.5703125,-118.65234375,-608.88671875,-52.734375,0.0
104622.1391585,-43.9453125,242.1875,-551.26953125,-32.2265625,0.0
104622.14306475,-3.90625,115.234375,-505.859375,-6.8359375,0.0
104622.146971,-34.66796875,-528.3203125,-646.97265625,-2.44140625,0.0
104622.15087725,-38.57421875,-698.73046875,-714.35546875,-24.4140625,0.0
104622.1547835,-57.6171875,148.92578125,-436.5234375,-37.59765625,0.0
104622.15868975,-14.6484375,408.69140625,-440.4296875,-13.671875,0.0
104622.162596,-39.55078125,-213.8671875,-571.77734375,-7.32421875,0.0
104622.165608666,-39.0625,-160.64453125,-502.9296875,-44.43359375,0.0
104622.169514916,-46.875,495.60546875,-431.640625,-63.4765625,0.0
104622.173421166,-1.953125,507.32421875,-487.79296875,-37.109375,0.0
104622.177327416,-28.3203125,-123.046875,-559.08203125,-6.34765625,0.0
104622.181233666,-54.6875,-171.875,-487.3046875,-19.53125,0.0
104622.185139916,-73.2421875,157.71484375,-532.2265625,-45.41015625,0.0
104622.189046166,-29.78515625,106.93359375,-561.5234375,-38.57421875,0.0
104622.192952416,-16.6015625,-549.31640625,-660.64453125,-5.859375,0.0
104622.196858666,-25.390625,-675.29296875,-614.2578125,-14.16015625,0.0
104622.200764916,-29.78515625,288.57421875,-433.59375,-39.55078125,0.0
104622.204671166,-61.03515625,498.046875,-478.02734375,-23.4375,0.0
104622.208577416,-7.8125,-112.79296875,-607.91015625,-6.34765625,0.0
104622.227741541,-33.69140625,-419.921875,-559.5703125,-15.13671875,0.0
104622.231647791,-46.38671875,183.10546875,-415.0390625,-52.24609375,0.0
104622.221551458,-62.98828125,365.234375,-508.7890625,-57.6171875,0.0
104622.225457708,-20.5078125,142.578125,-583.0078125,-21.484375,0.0
104622.229363958,-32.2265625,-104.98046875,-545.8984375,-8.7890625,0.0
104622.233270208,-31.73828125,-198.2421875,-558.10546875,-39.0625,0.0
104622.237176458,-69.82421875,-257.32421875,-632.8125,-44.921875,0.0
104622.241082708,-33.69140625,-378.41796875,-647.94921875,-8.7890625,0.0
104622.244988958,-25.87890625,-136.71875,-498.046875,-0.48828125,0.0
104622.248895208,-26.85546875,-24.90234375,-498.53515625,-41.015625,0.0
104622.252801458,-49.8046875,-20.99609375,-515.13671875,-65.4296875,0.0
104622.256707708,-57.12890625,247.0703125,-439.453125,-47.8515625,0.0
104622.256375333,-40.0390625,327.63671875,-413.0859375,-36.62109375,0.0
104622.260281583,-50.29296875,-110.3515625,-505.37109375,-52.24609375,0.0
104622.264187833,-49.31640625,-173.33984375,-564.453125,-65.91796875,0.0
104622.268094083,-52.24609375,277.83203125,-417.48046875,-59.5703125,0.0
104622.272000333,18.06640625,399.4140625,-444.3359375,-27.34375,0.0
104622.275906583,-30.76171875,-307.12890625,-590.8203125,-15.13671875,0.0
104622.279812833,-56.640625,-808.10546875,-665.0390625,-47.36328125,0.0
104622.283719083,-74.70703125,-395.99609375,-586.9140625,-63.4765625,0.0
104622.287625333,-19.04296875,457.03125,-384.27734375,-40.52734375,0.0
104622.291531583,-27.83203125,-17.08984375,-512.6953125,-7.8125,0.0
104622.295437833,-24.4140625,-278.80859375,-550.78125,-21.484375,0.0
104622.299344083,-37.59765625,349.12109375,-420.8984375,-50.29296875,0.0
104622.303643458,-8.30078125,664.55078125,-364.74609375,-32.71484375,0.0
104622.307549708,-37.59765625,20.99609375,-533.203125,-8.30078125,0.0
104622.311455958,-65.4296875,-439.94140625,-618.1640625,-40.52734375,0.0
104622.315362208,-66.89453125,229.4921875,-443.359375,-62.01171875,0.0
104622.319268458,-35.64453125,622.55859375,-392.578125,-35.64453125,0.0
104622.323174708,3.41796875,-140.13671875,-624.0234375,-5.859375,0.0
104622.327080958,-37.109375,-904.78515625,-752.9296875,-8.30078125,0.0
104622.330987208,-51.26953125,-207.03125,-499.51171875,-44.43359375,0.0
104622.334893458,-76.171875,603.02734375,-386.23046875,-41.9921875,0.0
104622.338799708,-31.73828125,-35.15625,-566.40625,-8.30078125,0.0
104622.342705958,-62.98828125,-698.2421875,-620.1171875,-12.6953125,0.0
104622.346612208,-51.7578125,76.171875,-424.31640625,-52.734375,0.0
104622.350023291,-75.1953125,497.55859375,-444.3359375,-70.3125,0.0
104622.353929541,-24.90234375,260.7421875,-501.953125,-44.921875,0.0
104622.357835791,-25.390625,-195.80078125,-499.0234375,-21.484375,0.0
104622.361742041,-28.80859375,-66.89453125,-458.0078125,-42.48046875,0.0
104622.365648291,-51.26953125,341.796875,-465.8203125,-62.98828125,0.0
104622.369554541,-19.04296875,91.796875,-526.85546875,-46.38671875,0.0
104622.373460791,-22.4609375,-459.47265625,-580.078125,-22.4609375,0.0
104622.377367041,-60.546875,-566.40625,-585.44921875,-38.57421875,0.0
104622.381273291,-81.0546875,-199.70703125,-590.33203125,-65.4296875,0.0
104622.385179541,-72.265625,-190.91796875,-562.98828125,-45.41015625,0.0
104622.389085791,-30.2734375,-159.66796875,-467.7734375,-20.99609375,0.0
104622.392992041,-48.828125,-33.69140625,-457.51953125,-44.921875,0.0
104622.395633416,-37.59765625,-48.33984375,-554.19921875,-80.078125,0.0
104622.399539666,-61.03515625,203.61328125,-543.45703125,-74.21875,0.0
104622.403445916,-9.27734375,401.3671875,-431.15234375,-37.109375,0.0
104622.407352166,-44.43359375,65.91796875,-444.3359375,-37.109375,0.0
104622.411258416,-56.15234375,-189.94140625,-516.6015625,-69.82421875,0.0
104622.415164666,-70.80078125,-169.43359375,-596.19140625,-66.40625,0.0
104622.419070916,-25.87890625,125.0,-499.0234375,-34.1796875,0.0
104622.422977166,-37.59765625,120.60546875,-418.45703125,-13.18359375,0.0
104622.426883416,-52.24609375,-496.09375,-601.5625,-27.83203125,0.0
104622.430789666,-76.171875,-601.5625,-679.19921875,-43.9453125,0.0
104622.434695916,-33.69140625,186.5234375,-425.29296875,-18.5546875,0.0
104622.438602166,-12.6953125,47.8515625,-499.51171875,-1.46484375,0.0
104622.440343916,-25.87890625,-408.69140625,-546.38671875,-34.1796875,0.0
104622.444250166,-24.4140625,16.6015625,-448.73046875,-49.8046875,0.0
104622.448156416,-30.76171875,551.26953125,-376.46484375,-32.71484375,0.0
104622.452062666,-3.41796875,294.921875,-441.40625,-16.11328125,0.0
104622.455968916,-50.78125,-362.3046875,-573.73046875,-25.390625,0.0
104622.459875166,-47.36328125,-363.76953125,-578.125,-54.6875,0.0
104622.463781416,-66.89453125,73.73046875,-498.53515625,-53.22265625,0.0
104622.467687666,-22.4609375,58.59375,-506.34765625,-20.01953125,0.0
104622.471593916,-41.9921875,-679.19921875,-635.7421875,0.0,0.0
104622.475500166,-40.0390625,-437.98828125,-516.11328125,-21.97265625,0.0
104622.479406416,-60.546875,527.83203125,-362.3046875,-39.55078125,0.0
104622.483312666,-29.78515625,498.046875,-455.078125,-33.203125,0.0
104622.485878625,-23.92578125,-198.2421875,-587.40234375,-25.87890625,0.0
104622.489784875,-21.484375,-328.125,-501.953125,-35.64453125,0.0
104622.493691125,-39.55078125,327.1484375,-380.859375,-42.96875,0.0
104622.497597375,-23.92578125,477.05078125,-450.68359375,-29.78515625,0.0
104622.501503625,0.48828125,-77.63671875,-594.7265625,-14.16015625,0.0
104622.505409875,-33.69140625,-483.3984375,-575.68359375,-20.99609375,0.0
104622.509316125,-57.6171875,-141.11328125,-509.27734375,-43.45703125,0.0
104622.513222375,-66.40625,-53.22265625,-588.8671875,-37.109375,0.0
104622.517128625,0.0,-551.26953125,-649.90234375,-5.37109375,0.0
104622.521034875,-23.4375,-310.546875,-438.96484375,-16.11328125,0.0
104622.524941125,-35.64453125,157.2265625,-428.22265625,-48.828125,0.0
104622.528847375,-73.2421875,237.79296875,-469.7265625,-47.8515625,0.0
104622.533790083,-16.11328125,260.25390625,-434.5703125,-20.01953125,0.0
104622.537696333,-32.2265625,49.31640625,-431.15234375,-6.8359375,0.0
104622.541602583,-46.38671875,-66.40625,-480.95703125,-36.62109375,0.0
104622.545508833,-67.87109375,-72.265625,-580.56640625,-56.640625,0.0
104622.549415083,-26.85546875,118.65234375,-499.0234375,-31.25,0.0
104622.553321333,-21.484375,-148.4375,-536.62109375,-2.9296875,0.0
104622.557227583,-36.62109375,-500.48828125,-565.91796875,-10.25390625,0.0
104622.561133833,-62.01171875,-627.44140625,-610.3515625,-36.62109375,0.0
104622.565040083,-59.5703125,-209.9609375,-493.65234375,-48.828125,0.0
104622.568946333,4.39453125,406.73828125,-349.609375,-35.15625,0.0
104622.572852583,-29.296875,-180.17578125,-523.4375,-37.109375,0.0
104622.576758833,-72.265625,-119.62890625,-519.04296875,-61.5234375,0.0
104622.6223905,-67.3828125,479.4921875,-388.18359375,-54.19921875,0.0
104622.60841875,1.953125,515.625,-386.23046875,-20.5078125,0.0
104622.612325,-58.59375,-226.5625,-542.48046875,-17.578125,0.0
104622.61623125,-61.5234375,-298.33984375,-558.59375,-63.96484375,0.0
104622.6201375,-69.82421875,411.1328125,-414.0625,-74.21875,0.0
104622.62404375,-17.08984375,254.8828125,-482.91015625,-46.875,0.0
104622.62795,-27.34375,-619.62890625,-668.45703125,-16.6015625,0.0
104622.63185625,-25.390625,-767.08984375,-662.59765625,-25.390625,0.0
104622.6357625,-52.734375,185.05859375,-389.16015625,-56.640625,0.0
104622.63966875,-30.76171875,650.390625,-376.46484375,-43.45703125,0.0
104622.643575,-25.390625,-111.328125,-512.20703125,-24.4140625,0.0
104622.64748125,-54.6875,-420.41015625,-477.05078125,-39.0625,0.0
104622.624945791,-64.453125,291.9921875,-377.9296875,-68.84765625,0.0
104622.628852041,-36.1328125,583.0078125,-401.85546875,-62.98828125,0.0
104622.632758291,1.953125,86.42578125,-515.13671875,-30.76171875,0.0
104622.636664541,-67.3828125,-330.56640625,-472.65625,-32.2265625,0.0
104622.640570791,-59.08203125,66.89453125,-432.6171875,-52.734375,0.0
104622.644477041,-77.1484375,241.69921875,-511.23046875,-57.6171875,0.0
104622.648383291,-30.2734375,-416.50390625,-586.42578125,-40.52734375,0.0
104622.652289541,-40.52734375,-757.8125,-531.25,-19.04296875,0.0
104622.656195791,-48.33984375,-70.3125,-458.0078125,-37.59765625,0.0
104622.660102041,-69.82421875,125.0,-518.5546875,-42.48046875,0.0
104622.664008291,-7.8125,76.66015625,-474.12109375,-23.92578125,0.0
104622.667914541,-18.5546875,-53.22265625,-436.5234375,-17.578125,0.0
104622.711901041,-33.203125,-15.625,-411.1328125,-42.96875,0.0
104622.69726575,-58.59375,114.74609375,-518.5546875,-53.22265625,0.0
104622.701172,-19.53125,165.0390625,-529.78515625,-23.4375,0.0
104622.70507825,4.8828125,140.625,-414.55078125,-6.8359375,0.0
104622.7089845,-48.33984375,-17.578125,-431.15234375,-34.1796875,0.0
104622.71289075,-56.15234375,-314.453125,-636.71875,-54.6875,0.0
104622.716797,-54.19921875,-413.57421875,-624.51171875,-41.50390625,0.0
104622.72070325,-8.30078125,120.1171875,-388.671875,-30.2734375,0.0
104622.7246095,-43.9453125,-0.48828125,-433.59375,-29.296875,0.0
104622.72851575,-42.96875,-221.6796875,-488.76953125,-46.38671875,0.0
104622.732422,-50.78125,133.30078125,-408.203125,-53.7109375,0.0
104622.73632825,5.859375,298.33984375,-419.921875,-41.015625,0.0
104622.713473333,-17.578125,-284.66796875,-520.5078125,-22.94921875,0.0
104622.717379583,-45.41015625,-306.640625,-497.0703125,-38.0859375,0.0
104622.721285833,-75.1953125,193.359375,-405.76171875,-48.828125,0.0
104622.725192083,-23.92578125,494.140625,-365.72265625,-26.85546875,0.0
104622.729098333,-24.90234375,-7.8125,-503.41796875,-8.30078125,0.0
104622.733004583,-26.85546875,-586.9140625,-577.1484375,-29.296875,0.0
104622.736910833,-49.31640625,-380.37109375,-563.96484375,-54.6875,0.0
104622.740817083,-29.296875,165.0390625,-440.4296875,-37.109375,0.0
104622.744723333,2.9296875,7.8125,-467.28515625,-9.27734375,0.0
104622.748629583,-35.64453125,-732.421875,-606.4453125,-16.11328125,0.0
104622.752535833,-49.8046875,-226.5625,-440.4296875,-46.875,0.0
104622.756442083,-66.89453125,588.8671875,-339.84375,-51.7578125,0.0
104622.803585166,-30.76171875,192.3828125,-477.05078125,-16.11328125,0.0
104622.784978458,-55.6640625,-460.9375,-564.453125,0.9765625,0.0
104622.788884708,-40.52734375,-279.296875,-471.6796875,-33.203125,0.0
104622.792790958,-48.33984375,323.73046875,-378.41796875,-41.9921875,0.0
104622.796697208,5.37109375,294.43359375,-444.82421875,-23.4375,0.0
104622.800603458,-40.52734375,-579.58984375,-633.7890625,-19.53125,0.0
104622.804509708,-49.8046875,-559.08203125,-526.85546875,-34.66796875,0.0
104622.808415958,-62.01171875,341.30859375,-343.75,-62.5,0.0
104622.812322208,-35.64453125,138.18359375,-511.71875,-43.9453125,0.0
104622.816228458,-20.01953125,-799.31640625,-685.546875,-20.99609375,0.0
104622.820134708,-29.78515625,-333.984375,-430.17578125,-45.41015625,0.0
104622.824040958,-56.640625,272.94921875,-420.41015625,-52.24609375,0.0
104622.8380415,-52.24609375,223.14453125,-459.47265625,-26.3671875,0.0
104622.84194775,-5.37109375,16.11328125,-424.31640625,-18.5546875,0.0
104622.845854,-30.2734375,-125.48828125,-426.26953125,-43.45703125,0.0
104622.839704333,-40.0390625,94.23828125,-448.2421875,-70.80078125,0.0
104622.843610583,-53.22265625,198.2421875,-491.69921875,-52.24609375,0.0
104622.847516833,3.90625,-106.93359375,-513.18359375,-13.671875,0.0
104622.851423083,-23.92578125,-564.94140625,-544.43359375,-15.13671875,0.0
104622.855329333,-30.76171875,-370.1171875,-525.390625,-37.59765625,0.0
104622.859235583,-69.3359375,-495.1171875,-585.9375,-36.62109375,0.0
104622.863141833,-36.1328125,-343.75,-487.3046875,-24.4140625,0.0
104622.867048083,-55.17578125,34.1796875,-376.953125,-25.390625,0.0
104622.870954333,-62.98828125,-226.07421875,-495.60546875,-44.921875,0.0
104622.891514125,-69.3359375,7.8125,-511.71875,-60.05859375,0.0
104622.875136375,-31.73828125,437.98828125,-383.30078125,-46.38671875,0.0
104622.879042625,-12.6953125,183.10546875,-412.59765625,-16.6015625,0.0
104622.882948875,-26.3671875,-329.1015625,-522.94921875,-27.83203125,0.0
104622.886855125,-39.0625,-129.8828125,-559.5703125,-59.08203125,0.0
104622.890761375,-35.15625,145.99609375,-493.65234375,-47.36328125,0.0
104622.894667625,-17.08984375,6.34765625,-446.77734375,-22.94921875,0.0
104622.898573875,-44.43359375,-601.07421875,-601.07421875,-28.80859375,0.0
104622.902480125,-38.57421875,-726.5625,-659.1796875,-45.8984375,0.0
104622.906386375,-63.96484375,325.68359375,-328.125,-37.109375,0.0
104622.910292625,-18.06640625,571.77734375,-346.6796875,-19.53125,0.0
104622.914198875,-38.57421875,-302.24609375,-524.4140625,-8.7890625,0.0
104622.938564916,-23.4375,-263.671875,-443.84765625,-27.34375,0.0
104622.9245935,-55.17578125,511.71875,-325.68359375,-57.12890625,0.0
104622.92849975,-18.5546875,548.33984375,-401.85546875,-43.9453125,0.0
104622.932406,-23.92578125,-138.18359375,-497.0703125,-13.18359375,0.0
104622.93631225,-52.734375,-299.31640625,-460.44921875,-20.99609375,0.0
104622.9402185,-83.0078125,36.62109375,-498.046875,-37.59765625,0.0
104622.94412475,-48.33984375,112.79296875,-466.30859375,-38.57421875,0.0
104622.948031,-22.94921875,-534.66796875,-606.93359375,-23.4375,0.0
104622.95193725,-48.33984375,-631.34765625,-534.66796875,-32.71484375,0.0
104622.9558435,-34.66796875,251.953125,-365.234375,-53.22265625,0.0
104622.95974975,-26.85546875,294.43359375,-459.9609375,-38.0859375,0.0
104622.963656,-4.39453125,-29.296875,-485.3515625,-17.578125,0.0
104622.94124,-35.15625,-184.08203125,-432.12890625,-20.5078125,0.0
104622.94514625,-30.76171875,185.546875,-355.95703125,-49.8046875,0.0
104622.9490525,-84.9609375,290.52734375,-450.68359375,-55.17578125,0.0
104622.95295875,-42.96875,103.02734375,-493.65234375,-35.64453125,0.0
104622.956865,-59.5703125,-66.89453125,-427.24609375,-29.78515625,0.0
104622.96077125,-62.98828125,-177.734375,-460.9375,-62.01171875,0.0
104622.9646775,-72.75390625,-239.2578125,-585.44921875,-72.265625,0.0
104622.96858375,-30.2734375,-484.375,-615.72265625,-35.64453125,0.0
104622.97249,-35.15625,-201.66015625,-384.27734375,-29.296875,0.0
104622.97639625,-35.15625,37.109375,-371.58203125,-48.828125,0.0
104622.9803025,-54.6875,61.03515625,-429.6875,-59.08203125,0.0
104622.98420875,-45.8984375,291.50390625,-383.7890625,-47.8515625,0.0
104622.987071208,-10.25390625,97.16796875,-448.2421875,-21.97265625,0.0
104622.990977458,-31.73828125,-431.640625,-519.53125,-20.01953125,0.0
104622.994883708,-41.9921875,-179.6875,-479.98046875,-52.24609375,0.0
104622.998789958,-47.36328125,411.62109375,-356.93359375,-44.921875,0.0
104623.002696208,3.41796875,334.9609375,-396.484375,-16.6015625,0.0
104623.006602458,-37.109375,-414.55078125,-551.26953125,-23.92578125,0.0
104623.010508708,-38.57421875,-832.03125,-637.6953125,-30.76171875,0.0
104623.014414958,-66.40625,-511.23046875,-545.8984375,-29.78515625,0.0
104623.018321208,-21.97265625,361.81640625,-310.546875,-22.4609375,0.0
104623.022227458,-27.83203125,-52.24609375,-459.9609375,-14.6484375,0.0
104623.026133708,-19.04296875,-390.13671875,-491.69921875,-26.3671875,0.0
104623.030039958,-56.640625,324.21875,-349.12109375,-42.96875,0.0
104623.059803208,-26.3671875,699.21875,-318.84765625,-30.76171875,0.0
104623.063709458,-18.5546875,-40.52734375,-507.32421875,-11.71875,0.0
104623.067615708,-50.29296875,-527.83203125,-571.2890625,-39.55078125,0.0
104623.071521958,-72.265625,6.8359375,-454.58984375,-64.453125,0.0
104623.075428208,-55.17578125,365.234375,-406.73828125,-33.203125,0.0
104623.079334458,-9.27734375,-199.21875,-589.35546875,4.39453125,0.0
104623.083240708,-46.875,-848.14453125,-667.48046875,-0.9765625,0.0
104623.087146958,-46.38671875,-19.53125,-361.81640625,-32.2265625,0.0
104623.091053208,-61.5234375,640.625,-329.58984375,-39.0625,0.0
104623.094959458,-21.97265625,239.74609375,-405.76171875,-27.83203125,0.0
104623.098865708,-46.38671875,-313.4765625,-444.3359375,-27.83203125,0.0
104623.102771958,-34.1796875,116.2109375,-354.98046875,-53.22265625,0.0
104623.108881208,-70.80078125,546.38671875,-354.4921875,-61.03515625,0.0
104623.112787458,-26.3671875,295.8984375,-424.8046875,-35.15625,0.0
104623.116693708,-41.9921875,-155.76171875,-432.6171875,-20.99609375,0.0
104623.120599958,-48.33984375,-27.34375,-372.0703125,-38.0859375,0.0
104623.124506208,-56.640625,357.421875,-406.73828125,-48.828125,0.0
104623.128412458,-24.90234375,94.7265625,-491.2109375,-21.97265625,0.0
104623.132318708,-8.30078125,-448.73046875,-512.20703125,0.9765625,0.0
104623.136224958,-36.1328125,-565.4296875,-517.578125,-26.85546875,0.0
104623.140131208,-50.78125,-187.98828125,-502.9296875,-59.5703125,0.0
104623.144037458,-37.59765625,-196.2890625,-489.74609375,-39.0625,0.0
104623.147943708,-10.25390625,-224.12109375,-411.1328125,-15.625,0.0
104623.151849958,-54.19921875,-59.08203125,-375.48828125,-23.4375,0.0
104623.172232875,-37.109375,5.37109375,-461.42578125,-44.921875,0.0
104623.176139125,-51.7578125,199.70703125,-452.63671875,-45.8984375,0.0
104623.166004541,-23.4375,364.2578125,-358.3984375,-11.23046875,0.0
104623.169910791,-51.7578125,-0.9765625,-404.296875,-3.41796875,0.0
104623.173817041,-22.94921875,-199.70703125,-484.86328125,-35.64453125,0.0
104623.177723291,-61.5234375,-178.7109375,-574.21875,-41.015625,0.0
104623.181629541,-41.015625,83.984375,-419.921875,-19.53125,0.0
104623.185535791,-35.15625,113.28125,-346.19140625,-4.39453125,0.0
104623.189442041,-41.015625,-583.49609375,-568.359375,-11.23046875,0.0
104623.193348291,-65.91796875,-658.69140625,-621.58203125,-29.296875,0.0
104623.197254541,-35.64453125,346.6796875,-330.56640625,-31.25,0.0
104623.201160791,-17.08984375,246.09375,-389.16015625,-7.32421875,0.0
104623.205754708,-42.96875,-426.26953125,-498.046875,-18.5546875,0.0
104623.209660958,-38.0859375,-48.33984375,-417.48046875,-56.15234375,0.0
104623.213567208,-29.296875,575.68359375,-313.96484375,-45.41015625,0.0
104623.217473458,17.578125,330.56640625,-392.578125,-9.765625,0.0
104623.221379708,-28.3203125,-398.92578125,-536.62109375,-20.01953125,0.0
104623.225285958,-45.41015625,-458.49609375,-537.109375,-54.6875,0.0
104623.229192208,-64.94140625,-31.25,-466.30859375,-59.08203125,0.0
104623.233098458,-7.8125,67.87109375,-458.49609375,-24.90234375,0.0
104623.237004708,-44.43359375,-665.52734375,-610.3515625,-1.953125,0.0
104623.240910958,-50.29296875,-480.95703125,-489.2578125,-41.9921875,0.0
104623.244817208,-62.01171875,478.02734375,-309.5703125,-59.08203125,0.0
104623.248723458,-24.90234375,359.86328125,-426.26953125,-22.94921875,0.0
104623.226072375,-19.53125,-366.2109375,-528.3203125,-4.8828125,0.0
104623.229978625,-23.92578125,-248.53515625,-391.11328125,-16.11328125,0.0
104623.233884875,-45.8984375,440.91796875,-322.265625,-35.64453125,0.0
104623.237791125,-21.484375,385.25390625,-437.5,-25.87890625,0.0
104623.241697375,10.7421875,-161.62109375,-565.4296875,14.16015625,0.0
104623.245603625,-26.85546875,-547.36328125,-549.8046875,12.20703125,0.0
104623.249509875,-40.0390625,-52.734375,-397.4609375,-36.62109375,0.0
104623.253416125,-52.734375,145.01953125,-473.6328125,-41.015625,0.0
104623.257322375,3.90625,-507.32421875,-604.00390625,-0.48828125,0.0
104623.261228625,-28.80859375,-305.6640625,-375.0,-17.08984375,0.0
104623.265134875,-35.64453125,184.5703125,-355.46875,-52.24609375,0.0
104623.269041125,-67.87109375,202.1484375,-396.97265625,-46.38671875,0.0
104623.290125375,-34.1796875,237.79296875,-343.26171875,-24.90234375,0.0
104623.294031625,-40.52734375,73.2421875,-392.08984375,-16.6015625,0.0
104623.297937875,-49.8046875,-274.4140625,-486.81640625,-37.59765625,0.0
104623.301844125,-75.68359375,4.8828125,-453.125,-56.640625,0.0
104623.305750375,-30.76171875,409.66796875,-369.140625,-35.15625,0.0
104623.309656625,-16.6015625,-133.7890625,-510.25390625,-5.859375,0.0
104623.313562875,-23.4375,-507.32421875,-515.625,-31.73828125,0.0
104623.317469125,-48.33984375,-603.02734375,-571.2890625,-57.6171875,0.0
104623.321375375,-43.9453125,-236.328125,-478.515625,-31.25,0.0
104623.325281625,0.48828125,384.27734375,-311.5234375,-16.11328125,0.0
104623.329187875,-33.69140625,-156.25,-449.70703125,-31.25,0.0
104623.333094125,-50.29296875,-147.94921875,-462.890625,-46.875,0.0
104623.336499166,-54.19921875,507.8125,-312.98828125,-36.1328125,0.0
104623.340405416,13.671875,572.75390625,-304.6875,1.953125,0.0
104623.344311666,-12.6953125,-225.5859375,-498.046875,17.578125,0.0
104623.348217916,-38.57421875,-269.53125,-506.34765625,-13.671875,0.0
104623.352124166,-68.84765625,304.6875,-380.859375,-41.50390625,0.0
104623.356030416,-18.06640625,171.875,-413.0859375,-41.9921875,0.0
104623.359936666,-38.57421875,-586.9140625,-624.0234375,-25.87890625,0.0
104623.363842916,-40.0390625,-776.3671875,-646.97265625,-35.15625,0.0
104623.367749166,-51.26953125,165.0390625,-347.65625,-59.5703125,0.0
104623.371655416,-23.4375,654.296875,-316.89453125,-35.15625,0.0
104623.375561666,-16.11328125,11.71875,-428.22265625,-11.71875,0.0
104623.379467916,-28.80859375,-317.3828125,-420.41015625,-32.2265625,0.0
104623.383761166,-43.9453125,301.7578125,-344.23828125,-57.6171875,0.0
104623.387667416,-62.98828125,575.1953125,-354.4921875,-54.19921875,0.0
104623.391573666,-29.78515625,62.01171875,-463.37890625,-28.3203125,0.0
104623.395479916,-46.875,-290.52734375,-415.52734375,-29.78515625,0.0
104623.399386166,-55.6640625,83.984375,-397.94921875,-65.91796875,0.0
104623.403292416,-84.47265625,238.76953125,-442.87109375,-61.5234375,0.0
104623.407198666,-22.94921875,-370.1171875,-582.03125,-19.04296875,0.0
104623.411104916,-52.734375,-996.09375,-643.06640625,-8.7890625,0.0
104623.415011166,-56.15234375,-326.171875,-411.1328125,-48.33984375,0.0
104623.418917416,-71.2890625,324.21875,-375.48828125,-60.546875,0.0
104623.422823666,-30.76171875,294.43359375,-403.80859375,-37.109375,0.0
104623.426729916,-22.4609375,-12.20703125,-409.66796875,-32.2265625,0.0
104623.42824025,-15.13671875,0.9765625,-369.140625,-43.45703125,0.0
104623.4321465,-54.19921875,240.234375,-423.33984375,-37.109375,0.0
104623.43605275,-40.0390625,305.6640625,-433.59375,-21.484375,0.0
104623.439959,-18.06640625,208.49609375,-365.72265625,-11.71875,0.0
104623.44386525,-41.50390625,-33.203125,-382.8125,-27.83203125,0.0
104623.4477715,-51.7578125,-227.05078125,-552.734375,-55.17578125,0.0
104623.45167775,-44.921875,-427.734375,-591.796875,-42.48046875,0.0
104623.455584,2.44140625,16.6015625,-341.796875,-18.5546875,0.0
104623.45949025,-44.43359375,62.5,-368.1640625,-19.04296875,0.0
104623.4633965,-47.36328125,-226.07421875,-457.51953125,-42.48046875,0.0
104623.46730275,-63.4765625,7.32421875,-414.55078125,-55.17578125,0.0
104623.471209,-13.671875,523.4375,-296.875,-36.62109375,0.0
104623.500334,-36.62109375,66.89453125,-401.3671875,-33.69140625,0.0
104623.50424025,-30.76171875,-244.62890625,-454.58984375,-62.01171875,0.0
104623.5081465,-67.87109375,202.63671875,-375.48828125,-66.89453125,0.0
104623.51205275,-24.4140625,581.54296875,-323.2421875,-44.43359375,0.0
104623.515959,-6.8359375,98.14453125,-430.6640625,-16.11328125,0.0
104623.51986525,-30.76171875,-548.33984375,-525.87890625,-24.90234375,0.0
104623.5237715,-69.3359375,-347.65625,-496.09375,-57.12890625,0.0
104623.52767775,-35.15625,200.1953125,-391.6015625,-41.50390625,0.0
104623.531584,-1.953125,106.4453125,-419.43359375,-9.27734375,0.0
104623.53549025,-39.0625,-659.1796875,-558.10546875,-24.4140625,0.0
104623.5393965,-33.203125,-224.12109375,-400.87890625,-57.12890625,0.0
104623.54330275,-30.2734375,687.5,-277.34375,-41.015625,0.0
104623.523400958,11.71875,268.5546875,-439.94140625,3.90625,0.0
104623.527307208,-35.64453125,-437.5,-513.18359375,-3.90625,0.0
104623.531213458,-35.64453125,31.25,-346.19140625,-44.921875,0.0
104623.535119708,-48.828125,624.0234375,-311.03515625,-45.41015625,0.0
104623.539025958,-9.27734375,273.92578125,-436.5234375,-25.390625,0.0
104623.542932208,-44.43359375,-646.484375,-599.609375,-14.16015625,0.0
104623.546838458,-32.2265625,-498.53515625,-496.58203125,-32.71484375,0.0
104623.550744708,-29.78515625,378.41796875,-338.8671875,-34.66796875,0.0
104623.554650958,-8.7890625,115.72265625,-496.09375,-13.18359375,0.0
104623.558557208,-13.671875,-792.96875,-665.0390625,0.48828125,0.0
104623.562463458,-20.01953125,-345.21484375,-406.73828125,-19.53125,0.0
104623.566369708,-26.3671875,337.40234375,-359.86328125,-49.31640625,0.0
104623.572349208,-7.32421875,262.20703125,-415.0390625,-39.0625,0.0
104623.576255458,8.7890625,5.37109375,-383.30078125,-5.859375,0.0
104623.580161708,-37.109375,-128.41796875,-395.5078125,-6.34765625,0.0
104623.584067958,-23.92578125,-97.16796875,-448.2421875,-20.01953125,0.0
104623.587974208,-24.90234375,128.90625,-431.15234375,-17.578125,0.0
104623.591880458,14.16015625,-5.859375,-455.078125,-7.8125,0.0
104623.595786708,-28.80859375,-571.2890625,-538.57421875,-17.08984375,0.0
104623.599692958,-23.4375,-406.25,-491.69921875,-52.734375,0.0
104623.603599208,-55.6640625,-451.171875,-532.71484375,-46.38671875,0.0
104623.607505458,-18.5546875,-243.65234375,-448.2421875,-13.671875,0.0
104623.611411708,-25.390625,137.6953125,-352.5390625,-13.18359375,0.0
104623.615317958,-21.484375,-110.3515625,-449.21875,-36.1328125,0.0
104623.620787375,-47.36328125,75.68359375,-453.125,-47.8515625,0.0
104623.624693625,-29.78515625,524.4140625,-313.4765625,-23.92578125,0.0
104623.628599875,-24.90234375,324.70703125,-340.8203125,-4.39453125,0.0
104623.632506125,-63.4765625,-215.8203125,-466.796875,-32.2265625,0.0
104623.636412375,-59.5703125,-77.63671875,-506.8359375,-49.8046875,0.0
104623.640318625,-33.203125,193.84765625,-449.21875,-28.80859375,0.0
104623.644224875,-10.25390625,-62.98828125,-460.9375,-14.16015625,0.0
104623.648131125,-42.96875,-755.859375,-622.55859375,-16.11328125,0.0
104623.652037375,-38.0859375,-688.4765625,-604.4921875,-31.25,0.0
104623.655943625,-58.10546875,387.6953125,-291.9921875,-27.83203125,0.0
104623.659849875,-8.7890625,612.79296875,-332.51953125,-24.90234375,0.0
104623.663756125,-37.109375,-317.87109375,-463.8671875,-54.19921875,0.0
104623.662089416,-35.64453125,-421.875,-411.1328125,-78.125,0.0
104623.665995666,-58.10546875,462.890625,-285.15625,-76.66015625,0.0
104623.669901916,-9.27734375,613.76953125,-337.40234375,-38.57421875,0.0
104623.673808166,-10.25390625,-130.859375,-466.796875,-10.7421875,0.0
104623.677714416,-17.08984375,-236.81640625,-408.69140625,-33.203125,0.0
104623.681620666,-29.78515625,136.23046875,-435.05859375,-46.38671875,0.0
104623.685526916,-24.4140625,226.5625,-416.015625,-30.76171875,0.0
104623.689433166,-23.4375,-420.41015625,-576.66015625,-10.7421875,0.0
104623.693339416,-41.015625,-805.17578125,-605.46875,-18.06640625,0.0
104623.697245666,-39.55078125,114.74609375,-372.0703125,-45.8984375,0.0
104623.701151916,-38.57421875,576.171875,-333.49609375,-36.1328125,0.0
104623.705058166,-8.30078125,178.22265625,-413.0859375,-10.25390625,0.0
104623.706530166,-59.08203125,-168.9453125,-397.4609375,-18.06640625,0.0
104623.710436416,-47.36328125,205.078125,-305.17578125,-39.0625,0.0
104623.714342666,-48.33984375,411.62109375,-394.04296875,-32.71484375,0.0
104623.718248916,6.34765625,180.6640625,-448.73046875,-7.32421875,0.0
104623.722155166,-21.97265625,-25.390625,-398.92578125,4.8828125,0.0
104623.726061416,-25.87890625,-147.94921875,-448.2421875,-16.11328125,0.0
104623.729967666,-54.6875,-213.8671875,-552.24609375,-21.484375,0.0
104623.733873916,-33.69140625,-290.0390625,-550.78125,-17.578125,0.0
104623.737780166,-34.1796875,-47.8515625,-339.35546875,-16.6015625,0.0
104623.741686416,-46.875,115.72265625,-337.40234375,-36.1328125,0.0
104623.745592666,-48.828125,44.921875,-416.015625,-61.5234375,0.0
104623.749498916,-20.99609375,88.37890625,-378.41796875,-41.015625,0.0
104623.752312708,0.9765625,248.046875,-328.125,-12.20703125,0.0
104623.756218958,-40.0390625,-13.18359375,-395.5078125,-19.04296875,0.0
104623.760125208,-48.33984375,27.83203125,-422.8515625,-50.78125,0.0
104623.764031458,-56.640625,435.05859375,-297.8515625,-40.52734375,0.0
104623.767937708,-2.44140625,474.609375,-312.01171875,-13.671875,0.0
104623.771843958,-27.83203125,-166.015625,-458.0078125,-24.90234375,0.0
104623.775750208,-47.36328125,-785.15625,-613.28125,-46.38671875,0.0
104623.779656458,-82.03125,-395.01953125,-512.6953125,-46.38671875,0.0
104623.783562708,-24.90234375,479.98046875,-295.8984375,-26.85546875,0.0
104623.787468958,-40.52734375,-10.25390625,-419.921875,-5.859375,0.0
104623.791375208,-44.43359375,-260.7421875,-436.5234375,-26.85546875,0.0
104623.795281458,-56.15234375,378.90625,-328.61328125,-41.9921875,0.0
104623.798613708,-16.11328125,757.32421875,-285.15625,-28.3203125,0.0
104623.802519958,-1.46484375,56.15234375,-447.75390625,-8.7890625,0.0
104623.806426208,-17.08984375,-458.0078125,-498.53515625,-21.484375,0.0
104623.810332458,-53.22265625,273.92578125,-334.9609375,-49.31640625,0.0
104623.814238708,-61.03515625,708.984375,-278.3203125,-43.9453125,0.0
104623.818144958,-24.90234375,-125.9765625,-546.875,-19.53125,0.0
104623.822051208,-62.01171875,-764.16015625,-630.859375,-25.390625,0.0
104623.825957458,-56.640625,98.6328125,-330.56640625,-63.96484375,0.0
104623.829863708,-65.4296875,690.91796875,-294.921875,-62.01171875,0.0
104623.833769958,-22.94921875,228.02734375,-368.65234375,-35.15625,0.0
104623.837676208,-54.6875,-403.80859375,-431.640625,-36.62109375,0.0
104623.841582458,-40.0390625,43.45703125,-354.98046875,-55.17578125,0.0
104623.844320916,-56.640625,549.31640625,-323.2421875,-51.7578125,0.0
104623.848227166,-16.6015625,359.86328125,-380.859375,-20.5078125,0.0
104623.852133416,-17.578125,-54.6875,-380.37109375,-6.34765625,0.0
104623.856039666,-20.01953125,43.45703125,-352.05078125,-33.69140625,0.0
104623.859945916,-56.640625,262.6953125,-424.8046875,-58.10546875,0.0
104623.863852166,-51.26953125,56.15234375,-461.42578125,-55.17578125,0.0
104623.867758416,-38.57421875,-391.6015625,-480.95703125,-24.4140625,0.0
104623.871664666,-48.828125,-554.6875,-475.09765625,-23.92578125,0.0
104623.875570916,-50.29296875,-201.171875,-469.23828125,-55.17578125,0.0
104623.879477166,-54.6875,-202.1484375,-453.61328125,-38.0859375,0.0
104623.883383416,0.9765625,-135.25390625,-351.07421875,-5.37109375,0.0
104623.887289666,-15.13671875,22.4609375,-335.9375,-14.16015625,0.0
104623.890527166,-21.97265625,46.875,-431.640625,-43.9453125,0.0
104623.894433416,-62.5,217.28515625,-435.05859375,-50.29296875,0.0
104623.898339666,-27.83203125,392.578125,-327.63671875,-23.92578125,0.0
104623.902245916,-41.015625,94.7265625,-349.609375,-7.32421875,0.0
104623.906152166,-40.52734375,-105.46875,-453.61328125,-39.55078125,0.0
104623.910058416,-80.078125,-56.640625,-506.8359375,-63.96484375,0.0
104623.913964666,-31.25,146.484375,-386.71875,-35.15625,0.0
104623.917870916,-25.87890625,-140.13671875,-418.9453125,-10.7421875,0.0
104623.921777166,-37.59765625,-705.078125,-576.66015625,-20.5078125,0.0
104623.925683416,-54.19921875,-552.734375,-575.1953125,-38.57421875,0.0
104623.929589666,-31.25,416.50390625,-280.2734375,-31.73828125,0.0
104623.933495916,-14.16015625,328.125,-352.05078125,-15.625,0.0
104623.934909083,-39.55078125,-315.91796875,-427.734375,-33.69140625,0.0
104623.938815333,-42.48046875,96.19140625,-336.42578125,-59.5703125,0.0
104623.942721583,-41.9921875,663.57421875,-260.25390625,-54.6875,0.0
104623.946627833,-2.9296875,410.15625,-346.19140625,-20.01953125,0.0
104623.950534083,-44.43359375,-325.68359375,-484.86328125,-13.671875,0.0
104623.954440333,-25.87890625,-302.734375,-453.125,-45.41015625,0.0
104623.958346583,-44.43359375,95.21484375,-416.015625,-42.96875,0.0
104623.962252833,-9.765625,64.94140625,-413.0859375,-13.671875,0.0
104623.966159083,-39.55078125,-640.13671875,-577.63671875,-0.9765625,0.0
104623.970065333,-47.36328125,-624.51171875,-536.1328125,-21.97265625,0.0
104623.973971583,-68.359375,246.09375,-323.73046875,-55.6640625,0.0
104623.977877833,-14.6484375,460.9375,-332.51953125,-39.0625,0.0
104623.980409333,-13.671875,-82.51953125,-436.5234375,-4.39453125,0.0
104623.984315583,-39.0625,-125.48828125,-359.86328125,-21.97265625,0.0
104623.988221833,-53.22265625,421.38671875,-320.3125,-51.7578125,0.0
104623.992128083,-45.41015625,470.21484375,-375.48828125,-38.0859375,0.0
104623.996034333,-20.99609375,-48.33984375,-490.234375,-12.20703125,0.0
104623.999940583,-45.41015625,-463.37890625,-484.375,-32.71484375,0.0
104624.003846833,-48.828125,-40.0390625,-371.58203125,-66.89453125,0.0
104624.007753083,-63.4765625,129.39453125,-465.8203125,-45.8984375,0.0
104624.011659333,-9.27734375,-520.01953125,-582.03125,-3.41796875,0.0
104624.015565583,-39.55078125,-311.03515625,-329.58984375,-7.8125,0.0
104624.019471833,-38.57421875,250.48828125,-281.73828125,-52.24609375,0.0
104624.023378083,-49.8046875,341.796875,-349.609375,-65.4296875,0.0
104624.025810458,27.34375,125.9765625,-383.7890625,-33.203125,0.0
104624.029716708,-10.7421875,-79.1015625,-363.28125,-19.04296875,0.0
104624.033622958,-58.10546875,38.0859375,-353.515625,-25.87890625,0.0
104624.037529208,-67.3828125,227.5390625,-391.11328125,-31.73828125,0.0
104624.041435458,-16.11328125,354.00390625,-369.62890625,-26.85546875,0.0
104624.045341708,-6.34765625,-143.5546875,-478.515625,-10.7421875,0.0
104624.049247958,-30.2734375,-456.54296875,-467.28515625,-34.1796875,0.0
104624.053154208,-50.78125,-630.859375,-550.29296875,-57.12890625,0.0
104624.057060458,-34.66796875,-245.60546875,-442.87109375,-40.0390625,0.0
104624.060966708,9.27734375,370.60546875,-278.80859375,-14.6484375,0.0
104624.064872958,-47.8515625,-192.3828125,-414.0625,-17.578125,0.0
104624.068779208,-45.41015625,-69.82421875,-413.0859375,-43.45703125,0.0
104624.098811708,-46.875,432.12890625,-299.31640625,-34.1796875,0.0
104624.102717958,-7.8125,486.81640625,-251.46484375,-13.18359375,0.0
104624.106624208,-43.9453125,-153.80859375,-439.453125,-14.16015625,0.0
104624.110530458,-55.17578125,-389.6484375,-488.76953125,-47.8515625,0.0
104624.114436708,-74.21875,335.9375,-319.3359375,-52.734375,0.0
104624.118342958,-20.01953125,323.2421875,-379.39453125,-20.01953125,0.0
104624.122249208,-21.484375,-552.24609375,-587.890625,-5.37109375,0.0
104624.126155458,-22.94921875,-788.57421875,-611.328125,-32.2265625,0.0
104624.130061708,-55.17578125,181.15234375,-286.62109375,-51.26953125,0.0
104624.133967958,-30.76171875,731.4453125,-239.74609375,-23.4375,0.0
104624.137874208,-10.25390625,32.71484375,-375.0,-6.34765625,0.0
104624.141780458,-22.94921875,-291.50390625,-365.234375,-29.78515625,0.0
104624.145836583,-41.015625,328.61328125,-302.734375,-58.59375,0.0
104624.149742833,-38.0859375,648.4375,-292.48046875,-47.36328125,0.0
104624.153649083,1.953125,114.2578125,-400.390625,-14.6484375,0.0
104624.157555333,-46.875,-303.7109375,-377.9296875,-12.6953125,0.0
104624.161461583,-43.45703125,119.140625,-354.98046875,-39.55078125,0.0
104624.165367833,-55.6640625,262.20703125,-419.921875,-41.015625,0.0
104624.169274083,-11.23046875,-351.07421875,-521.97265625,-19.53125,0.0
104624.173180333,-36.62109375,-961.9140625,-556.640625,-18.06640625,0.0
104624.177086583,-41.50390625,-263.671875,-353.515625,-54.19921875,0.0
104624.180992833,-64.94140625,323.2421875,-345.21484375,-61.5234375,0.0
104624.184899083,-9.765625,142.08984375,-392.578125,-26.85546875,0.0
104624.188805333,-17.08984375,-68.84765625,-343.75,-11.71875,0.0
104624.207801916,-34.1796875,22.4609375,-316.89453125,-35.15625,0.0
104624.211708166,-59.08203125,207.03125,-392.08984375,-38.57421875,0.0
104624.200858583,-31.73828125,216.30859375,-413.57421875,-19.53125,0.0
104624.204764833,-8.30078125,121.58203125,-347.65625,-14.16015625,0.0
104624.208671083,-31.25,-6.8359375,-325.1953125,-32.71484375,0.0
104624.212577333,-40.52734375,-223.6328125,-532.71484375,-47.8515625,0.0
104624.216483583,-54.6875,-360.83984375,-549.31640625,-29.78515625,0.0
104624.220389833,-6.8359375,104.98046875,-306.640625,-8.30078125,0.0
104624.224296083,-36.62109375,-252.9296875,-434.08203125,-12.20703125,0.0
104624.228202333,-30.2734375,-484.86328125,-442.87109375,-37.109375,0.0
104624.232108583,-61.5234375,112.3046875,-322.75390625,-50.29296875,0.0
104624.236014833,-15.625,517.08984375,-282.2265625,-36.1328125,0.0
104624.252170666,-33.69140625,-27.83203125,-384.27734375,-18.5546875,0.0
104624.256076916,-27.83203125,-338.8671875,-409.66796875,-35.64453125,0.0
104624.242696875,-58.10546875,158.203125,-326.66015625,-55.17578125,0.0
104624.246603125,-33.203125,528.3203125,-283.203125,-28.3203125,0.0
104624.250509375,-15.625,127.9296875,-374.51171875,-6.8359375,0.0
104624.254415625,-20.99609375,-508.30078125,-487.3046875,-39.0625,0.0
104624.258321875,-42.48046875,-336.9140625,-441.89453125,-63.4765625,0.0
104624.262228125,-38.0859375,182.12890625,-332.51953125,-46.875,0.0
104624.266134375,-2.9296875,27.34375,-392.08984375,-9.765625,0.0
104624.270040625,-9.27734375,-635.25390625,-494.140625,-7.32421875,0.0
104624.273946875,-27.83203125,-295.41015625,-398.4375,-54.6875,0.0
104624.277853125,-52.734375,336.9140625,-346.6796875,-63.96484375,0.0
104624.278896541,5.37109375,90.8203125,-412.109375,-34.1796875,0.0
104624.282802791,-47.8515625,-430.17578125,-465.33203125,-26.85546875,0.0
104624.286709041,-60.05859375,-61.5234375,-345.21484375,-42.48046875,0.0
104624.290615291,-69.82421875,485.83984375,-290.52734375,-42.96875,0.0
104624.294521541,-12.20703125,273.92578125,-392.08984375,-27.34375,0.0
104624.298427791,-13.18359375,-573.2421875,-575.68359375,-20.99609375,0.0
104624.302334041,-20.99609375,-560.546875,-434.08203125,-49.8046875,0.0
104624.306240291,-41.9921875,326.171875,-265.625,-67.87109375,0.0
104624.310146541,-10.7421875,124.0234375,-455.56640625,-27.83203125,0.0
104624.314052791,-13.18359375,-776.3671875,-617.67578125,7.32421875,0.0
104624.317959041,-40.0390625,-329.58984375,-348.6328125,-20.5078125,0.0
104624.321865291,-53.7109375,352.05078125,-314.453125,-41.015625,0.0
104624.326078708,-25.87890625,386.71875,-353.02734375,-14.16015625,0.0
104624.329984958,6.34765625,-62.5,-409.1796875,0.0,0.0
104624.333891208,-35.64453125,-309.5703125,-395.01953125,-24.90234375,0.0
104624.337797458,-47.36328125,155.76171875,-323.2421875,-56.15234375,0.0
104624.341703708,-69.3359375,355.95703125,-364.2578125,-45.41015625,0.0
104624.345609958,-19.53125,6.34765625,-421.38671875,-18.06640625,0.0
104624.349516208,-36.62109375,-501.46484375,-467.28515625,-25.87890625,0.0
104624.353422458,-32.71484375,-261.71875,-413.0859375,-48.828125,0.0
104624.357328708,-77.63671875,-394.04296875,-508.30078125,-49.31640625,0.0
104624.361234958,-36.1328125,-245.1171875,-425.78125,-19.04296875,0.0
104624.365141208,-34.1796875,110.83984375,-303.7109375,-6.34765625,0.0
104624.369047458,-25.390625,-177.734375,-410.64453125,-36.62109375,0.0
104624.373002708,-35.64453125,98.6328125,-406.25,-58.59375,0.0
104624.376908958,-13.18359375,560.546875,-273.92578125,-40.52734375,0.0
104624.380815208,-4.8828125,330.078125,-296.875,-17.08984375,0.0
104624.384721458,-18.06640625,-281.25,-452.1484375,-29.296875,0.0
104624.388627708,-44.43359375,-297.36328125,-489.2578125,-44.43359375,0.0
104624.392533958,-70.80078125,110.3515625,-373.046875,-25.390625,0.0
104624.396440208,-23.92578125,6.8359375,-382.8125,-1.953125,0.0
104624.400346458,-42.96875,-678.22265625,-564.453125,-8.7890625,0.0
104624.404252708,-38.0859375,-738.28125,-581.0546875,-37.59765625,0.0
104624.408158958,-66.40625,299.31640625,-251.46484375,-60.05859375,0.0
104624.412065208,-23.4375,604.00390625,-271.484375,-42.96875,0.0
104624.415971458,-41.015625,-235.83984375,-406.73828125,-28.80859375,0.0
104624.437446041,-40.0390625,-193.84765625,-332.03125,-52.734375,0.0
104624.423517375,-59.5703125,512.6953125,-261.71875,-57.12890625,0.0
104624.427423625,-17.578125,577.1484375,-300.78125,-12.6953125,0.0
104624.431329875,-18.06640625,-100.5859375,-398.92578125,6.8359375,0.0
104624.435236125,-18.06640625,-269.04296875,-381.34765625,-34.66796875,0.0
104624.439142375,-52.24609375,65.91796875,-418.45703125,-53.7109375,0.0
104624.443048625,-34.66796875,157.71484375,-389.6484375,-40.52734375,0.0
104624.446954875,5.37109375,-452.63671875,-511.23046875,-13.671875,0.0
104624.450861125,-33.203125,-713.37890625,-459.47265625,-17.08984375,0.0
104624.454767375,-54.19921875,263.18359375,-250.0,-45.8984375,0.0
104624.458673625,-58.10546875,541.015625,-308.59375,-39.55078125,0.0
104624.462579875,-14.16015625,21.97265625,-383.7890625,0.0,0.0
104624.482852083,-33.69140625,-193.359375,-328.125,8.30078125,0.0
104624.468317708,-22.4609375,246.58203125,-268.5546875,-24.4140625,0.0
104624.472223958,-53.22265625,362.3046875,-356.93359375,-35.15625,0.0
104624.476130208,2.44140625,142.578125,-424.31640625,-12.20703125,0.0
104624.480036458,-9.765625,-177.24609375,-416.50390625,3.41796875,0.0
104624.483942708,-12.6953125,-315.4296875,-422.36328125,-24.4140625,0.0
104624.487848958,-50.78125,-262.6953125,-532.71484375,-37.109375,0.0
104624.491755208,-23.92578125,-442.87109375,-541.015625,-11.71875,0.0
104624.495661458,-15.13671875,-235.83984375,-314.94140625,-2.44140625,0.0
104624.499567708,-39.55078125,-246.09375,-407.2265625,-21.484375,0.0
104624.503473958,-56.15234375,-216.796875,-434.5703125,-29.78515625,0.0
104624.507380208,-24.4140625,326.171875,-273.4375,-25.390625,0.0
104624.51235525,-2.9296875,187.98828125,-296.38671875,-6.8359375,0.0
104624.5162615,-47.36328125,-277.83203125,-377.44140625,-3.41796875,0.0
104624.52016775,-39.55078125,-87.890625,-402.83203125,-28.80859375,0.0
104624.524074,-40.0390625,393.5546875,-264.6484375,-21.97265625,0.0
104624.52798025,20.01953125,409.66796875,-301.26953125,4.8828125,0.0
104624.5318865,-4.39453125,-305.6640625,-448.2421875,7.32421875,0.0
104624.53579275,-26.3671875,-839.84375,-607.421875,-9.27734375,0.0
104624.539699,-67.3828125,-478.515625,-514.6484375,-18.06640625,0.0
104624.54360525,-9.765625,384.27734375,-250.48828125,-5.859375,0.0
104624.5475115,-15.625,-56.15234375,-388.671875,0.0,0.0
104624.55141775,-26.85546875,-324.70703125,-394.04296875,-42.96875,0.0
104624.555324,-43.45703125,277.83203125,-298.828125,-61.03515625,0.0
104624.560814833,1.46484375,415.0390625,-290.52734375,-30.76171875,0.0
104624.564721083,8.7890625,-147.94921875,-415.0390625,1.953125,0.0
104624.568627333,-1.953125,-423.33984375,-457.03125,-12.20703125,0.0
104624.572533583,-33.203125,237.3046875,-288.0859375,-43.45703125,0.0
104624.576439833,-41.015625,661.1328125,-239.2578125,-37.59765625,0.0
104624.580346083,-6.34765625,-133.30078125,-517.08984375,-27.34375,0.0
104624.584252333,-53.7109375,-792.96875,-606.4453125,-36.62109375,0.0
104624.588158583,-39.0625,31.73828125,-291.50390625,-63.96484375,0.0
104624.592064833,-39.55078125,655.76171875,-239.74609375,-53.7109375,0.0
104624.595971083,7.8125,121.58203125,-339.84375,-21.484375,0.0
104624.599877333,-23.4375,-485.83984375,-384.765625,-14.16015625,0.0
104624.603783583,-32.2265625,36.62109375,-289.0625,-45.41015625,0.0
104624.605498916,-58.59375,488.28125,-290.52734375,-60.546875,0.0
104624.609405166,-17.578125,289.0625,-339.35546875,-31.73828125,0.0
104624.613311416,-38.57421875,-338.8671875,-412.59765625,-18.5546875,0.0
104624.617217666,-32.71484375,-327.63671875,-385.25390625,-49.8046875,0.0
104624.621123916,-53.22265625,275.87890625,-313.96484375,-55.6640625,0.0
104624.625030166,-23.4375,133.30078125,-401.85546875,-10.7421875,0.0
104624.628936416,-20.5078125,-530.76171875,-498.046875,3.90625,0.0
104624.632842666,-50.29296875,-610.3515625,-437.01171875,-32.71484375,0.0
104624.636748916,-51.26953125,62.5,-342.7734375,-62.98828125,0.0
104624.640655166,-49.31640625,-60.546875,-403.80859375,-43.9453125,0.0
104624.644561416,1.46484375,-199.21875,-332.51953125,-5.859375,0.0
104624.648467666,-27.83203125,-87.40234375,-327.63671875,-6.34765625,0.0
104624.654687083,-29.78515625,-112.79296875,-416.9921875,-30.76171875,0.0
104624.658593333,-53.7109375,159.1796875,-383.30078125,-36.62109375,0.0
104624.662499583,-18.06640625,367.1875,-276.85546875,-29.296875,0.0
104624.666405833,-40.52734375,20.01953125,-324.21875,-21.97265625,0.0
104624.670312083,-35.15625,-281.73828125,-448.2421875,-31.25,0.0
104624.674218333,-65.4296875,-225.09765625,-507.32421875,-45.41015625,0.0
104624.678124583,-25.87890625,-47.36328125,-412.59765625,-30.2734375,0.0
104624.682030833,-34.66796875,-197.265625,-358.88671875,-21.97265625,0.0
104624.685937083,-36.1328125,-543.45703125,-469.7265625,-43.45703125,0.0
104624.689843333,-48.828125,-623.046875,-581.0546875,-53.7109375,0.0
104624.693749583,-30.76171875,302.734375,-251.46484375,-37.109375,0.0
104624.697655833,-13.671875,365.234375,-268.06640625,-20.01953125,0.0
104624.698471583,-41.9921875,-359.375,-416.015625,-26.85546875,0.0
104624.702377833,-26.3671875,-31.73828125,-329.1015625,-42.96875,0.0
104624.706284083,-24.90234375,531.25,-250.9765625,-31.25,0.0
104624.710190333,-2.44140625,284.66796875,-328.61328125,-8.30078125,0.0
104624.714096583,-39.55078125,-423.33984375,-470.21484375,-7.32421875,0.0
104624.718002833,-36.62109375,-421.875,-445.3125,-37.109375,0.0
104624.721909083,-64.94140625,71.2890625,-361.328125,-48.33984375,0.0
104624.725815333,-3.90625,10.7421875,-366.69921875,-21.484375,0.0
104624.729721583,-24.4140625,-746.09375,-556.15234375,-4.39453125,0.0
104624.733627833,-51.26953125,-497.0703125,-439.94140625,-32.2265625,0.0
104624.737534083,-65.4296875,484.86328125,-215.33203125,-64.453125,0.0
104624.741440333,-18.06640625,478.515625,-321.77734375,-39.55078125,0.0
104624.743984125,-9.765625,-224.12109375,-421.38671875,-16.6015625,0.0
104624.747890375,-20.5078125,-210.9375,-326.66015625,-32.71484375,0.0
104624.751796625,-55.6640625,400.87890625,-264.6484375,-55.17578125,0.0
104624.755702875,-45.8984375,416.50390625,-342.28515625,-41.9921875,0.0
104624.759609125,-16.6015625,-100.09765625,-448.2421875,-12.6953125,0.0
104624.763515375,-48.828125,-532.71484375,-447.265625,-17.08984375,0.0
104624.767421625,-40.0390625,-241.69921875,-380.859375,-47.36328125,0.0
104624.771327875,-56.15234375,-92.7734375,-480.95703125,-38.57421875,0.0
104624.775234125,-25.87890625,-535.64453125,-533.203125,-1.46484375,0.0
104624.779140375,-38.0859375,-313.4765625,-307.12890625,-13.671875,0.0
104624.783046625,-8.7890625,33.69140625,-374.0234375,-48.828125,0.0
104624.786952875,-46.38671875,-34.66796875,-388.671875,-55.17578125,0.0
104624.811218791,-15.13671875,170.41015625,-247.0703125,-26.85546875,0.0
104624.797292458,-33.69140625,92.7734375,-280.76171875,-17.08984375,0.0
104624.801198708,-41.015625,-98.6328125,-353.02734375,-42.48046875,0.0
104624.805104958,-64.453125,67.3828125,-361.81640625,-55.17578125,0.0
104624.809011208,-16.6015625,334.47265625,-285.64453125,-16.11328125,0.0
104624.812917458,2.9296875,-142.08984375,-410.15625,27.83203125,0.0
104624.816823708,-34.1796875,-538.0859375,-430.17578125,-10.7421875,0.0
104624.820729958,-62.01171875,-688.96484375,-549.8046875,-58.59375,0.0
104624.824636208,-47.8515625,-328.61328125,-442.3828125,-41.9921875,0.0
104624.828542458,-1.46484375,324.70703125,-229.4921875,-17.578125,0.0
104624.832448708,-35.15625,-187.98828125,-369.140625,-22.94921875,0.0
104624.836354958,-44.921875,-155.76171875,-378.90625,-48.33984375,0.0
104624.857194333,-56.15234375,485.83984375,-253.90625,-45.8984375,0.0
104624.84039375,-5.37109375,328.125,-340.33203125,-27.83203125,0.0
104624.8443,-44.921875,-579.58984375,-524.4140625,-33.203125,0.0
104624.84820625,-48.33984375,-390.625,-414.0625,-62.01171875,0.0
104624.8521125,-58.59375,371.09375,-303.22265625,-63.96484375,0.0
104624.85601875,-14.6484375,189.94140625,-382.8125,-34.66796875,0.0
