lsl_timestamp,AF3,F7,F3,FC5,T7,P7,O1,O2,P8,T8,FC6,F4,F8,AF4
1785785386.0,0.0042497435897435884,0.004251282051282051,0.004247692307692307,0.00425025641025641,0.004251794871794871,0.004251282051282051,0.004252307692307692,0.005361025641025641,0.00427025641025641,0.0050271794871794865,0.004968205128205128,0.00491025641025641,0.004963589743589743,0.004865128205128205
1785785386.0078125,0.0042497435897435884,0.004251282051282051,0.004247692307692307,0.00425025641025641,0.004251794871794871,0.004251282051282051,0.004252307692307692,0.0053599999999999984,0.004266153846153846,0.005022051282051281,0.004963589743589743,0.004904102564102563,0.004963589743589743,0.00486051282051282
1785785386.015625,0.0042497435897435884,0.004251282051282051,0.004247692307692307,0.00425025641025641,0.004251794871794871,0.004251282051282051,0.004252307692307692,0.005355897435897435,0.00426051282051282,0.005022564102564102,0.004972307692307692,0.004908205128205128,0.004962564102564102,0.00486051282051282
1785785386.0234375,0.0042497435897435884,0.004251282051282051,0.004247692307692307,0.00425025641025641,0.004251794871794871,0.004251282051282051,0.004252307692307692,0.0053599999999999984,0.004256410256410255,0.005023589743589743,0.00498,0.004911282051282051,0.004968205128205128,0.0048615384615384605
1785785386.03125,0.0042497435897435884,0.004251282051282051,0.004247692307692307,0.00425025641025641,0.004251794871794871,0.004251282051282051,0.004252307692307692,0.005354871794871794,0.004253846153846153,0.005023589743589743,0.004977948717948717,0.004911282051282051,0.004969230769230768,0.004863076923076922
1785785386.0390625,0.0042497435897435884,0.004251282051282051,0.004247692307692307,0.00425025641025641,0.004251794871794871,0.004251282051282051,0.004252307692307692,0.00535128205128205,0.004253333333333333,0.005022051282051281,0.004973333333333333,0.00491025641025641,0.004969230769230768,0.004864102564102564
1785785386.046875,0.0042497435897435884,0.004251282051282051,0.004247692307692307,0.00425025641025641,0.004251794871794871,0.004251282051282051,0.004252307692307692,0.005359487179487178,0.004257435897435898,0.005021025641025641,0.004972307692307692,0.004908717948717948,0.004963589743589743,0.004865128205128205
1785785386.0546875,0.0042497435897435884,0.004251282051282051,0.004247692307692307,0.00425025641025641,0.004251794871794871,0.004251282051282051,0.004252307692307692,0.005352820512820512,0.004263076923076922,0.005029743589743589,0.0049784615384615375,0.004913333333333333,0.004968717948717948,0.004871282051282051
1785785386.0625,0.0042497435897435884,0.004251282051282051,0.004247692307692307,0.00425025641025641,0.004251794871794871,0.004251282051282051,0.004252307692307692,0.005356410256410256,0.0042697435897435885,0.005022564102564102,0.004972307692307692,0.00491025641025641,0.004957948717948717,0.00487025641025641
1785785386.0703125,0.0042497435897435884,0.004251282051282051,0.004247692307692307,0.00425025641025641,0.004251794871794871,0.004251282051282051,0.004252307692307692,0.005349743589743589,0.004275384615384615,0.005032307692307691,0.004975897435897435,0.004915897435897435,0.004968205128205128,0.004874358974358973
1785785386.078125,0.0042497435897435884,0.004251282051282051,0.004247692307692307,0.00425025641025641,0.004251794871794871,0.004251282051282051,0.004252307692307692,0.005354358974358974,0.0042743589743589735,0.005028717948717948,0.004967179487179486,0.004908205128205128,0.004962564102564102,0.004867692307692307
1785785386.0859375,0.0042497435897435884,0.004251282051282051,0.004247692307692307,0.00425025641025641,0.004251794871794871,0.004251282051282051,0.004252307692307692,0.00535025641025641,0.004271794871794871,0.005033333333333333,0.004973333333333333,0.00491076923076923,0.004969230769230768,0.004873846153846153
1785785386.09375,0.0042497435897435884,0.004251282051282051,0.004247692307692307,0.00425025641025641,0.004251794871794871,0.004251282051282051,0.004252307692307692,0.005357435897435896,0.0042697435897435885,0.005026666666666666,0.0049584615384615375,0.004903076923076922,0.004954871794871794,0.004865128205128205
1785785386.1015625,0.0042497435897435884,0.004251282051282051,0.004247692307692307,0.00425025641025641,0.004251794871794871,0.004251282051282051,0.004252307692307692,0.005349743589743589,0.00427025641025641,0.005035384615384615,0.004968205128205128,0.00491025641025641,0.0049630769230769225,0.004864615384615384
1785785386.109375,0.0042497435897435884,0.004251282051282051,0.004247692307692307,0.00425025641025641,0.004251794871794871,0.004251282051282051,0.004252307692307692,0.005358461538461538,0.004265128205128205,0.005025641025641025,0.0049656410256410256,0.004905128205128205,0.0049543589743589736,0.004855897435897435
1785785386.1171875,0.0042497435897435884,0.004251282051282051,0.004247692307692307,0.00425025641025641,0.004251794871794871,0.004251282051282051,0.004252307692307692,0.0053538461538461535,0.004263589743589743,0.005029743589743589,0.004965128205128204,0.004908717948717948,0.004957435897435896,0.00486051282051282
1785785386.125,0.0042497435897435884,0.004251282051282051,0.004247692307692307,0.00425025641025641,0.004251794871794871,0.004251282051282051,0.004252307692307692,0.005354871794871794,0.004264615384615384,0.005027692307692308,0.00496051282051282,0.004905641025641025,0.00496,0.004856923076923076
1785785386.1328125,0.0042497435897435884,0.004251282051282051,0.004247692307692307,0.00425025641025641,0.004251794871794871,0.004251282051282051,0.004252307692307692,0.005352820512820512,0.004263076923076922,0.005027692307692308,0.0049717948717948705,0.004909743589743588,0.004968205128205128,0.004858461538461538
1785785386.140625,0.0042497435897435884,0.004251282051282051,0.004247692307692307,0.00425025641025641,0.004251794871794871,0.004251282051282051,0.004252307692307692,0.005356410256410256,0.00426,0.005021538461538461,0.004972820512820513,0.004907692307692307,0.004964102564102563,0.004858461538461538
1785785386.1484375,0.0042497435897435884,0.004251282051282051,0.004247692307692307,0.00425025641025641,0.004251794871794871,0.004251282051282051,0.004252307692307692,0.005355384615384615,0.00426,0.00502,0.004974358974358974,0.004907179487179486,0.0049656410256410256,0.004864615384615384
1785785386.15625,0.0042497435897435884,0.004251282051282051,0.004247692307692307,0.00425025641025641,0.004251794871794871,0.004251282051282051,0.004252307692307692,0.005356410256410256,0.004257948717948718,0.005014871794871794,0.004972307692307692,0.004904102564102563,0.0049676923076923075,0.004864102564102564
1785785386.1640625,0.0042497435897435884,0.004251282051282051,0.004247692307692307,0.00425025641025641,0.004251794871794871,0.004251282051282051,0.004252307692307692,0.005358461538461538,0.004263589743589743,0.005012820512820512,0.004969743589743589,0.004904615384615384,0.0049584615384615375,0.004867692307692307
1785785386.171875,0.0042497435897435884,0.004251282051282051,0.004247692307692307,0.00425025641025641,0.004251794871794871,0.004251282051282051,0.004252307692307692,0.0053538461538461535,0.004266666666666666,0.00502051282051282,0.00497128205128205,0.004909230769230768,0.004962051282051281,0.004878461538461538
1785785386.1796875,0.0042497435897435884,0.004251282051282051,0.004247692307692307,0.00425025641025641,0.004251794871794871,0.004251282051282051,0.004252307692307692,0.005356410256410256,0.004266666666666666,0.005015897435897435,0.0049656410256410256,0.004905641025641025,0.0049543589743589736,0.004877435897435897
1785785386.1875,0.0042497435897435884,0.004251282051282051,0.004247692307692307,0.00425025641025641,0.004251794871794871,0.004251282051282051,0.004252307692307692,0.005346153846153845,0.004273333333333333,0.005023589743589743,0.004968717948717948,0.004908717948717948,0.004961538461538461,0.004874358974358973
1785785386.1953125,0.0042497435897435884,0.004251282051282051,0.004247692307692307,0.00425025641025641,0.004251794871794871,0.004251282051282051,0.004252307692307692,0.005354358974358974,0.004276923076923076,0.005021538461538461,0.004957435897435896,0.004903589743589743,0.004953333333333333,0.004868717948717948
1785785386.203125,0.0042497435897435884,0.004251282051282051,0.004247692307692307,0.00425025641025641,0.004251794871794871,0.004251282051282051,0.004252307692307692,0.00535025641025641,0.004273846153846153,0.005031794871794871,0.004968205128205128,0.004909230769230768,0.004962564102564102,0.004877435897435897
1785785386.2109375,0.0042497435897435884,0.004251282051282051,0.004247692307692307,0.00425025641025641,0.004251794871794871,0.004251282051282051,0.004252307692307692,0.005356923076923076,0.00427025641025641,0.005026666666666666,0.004962051282051281,0.004903076923076922,0.004955384615384615,0.004869230769230768
1785785386.21875,0.0042497435897435884,0.004251282051282051,0.004247692307692307,0.00425025641025641,0.004251794871794871,0.004251282051282051,0.004252307692307692,0.005351794871794871,0.004272820512820513,0.005032307692307691,0.004968717948717948,0.00491025641025641,0.0049656410256410256,0.004872307692307691
1785785386.2265625,0.0042497435897435884,0.004251282051282051,0.004247692307692307,0.00425025641025641,0.004251794871794871,0.004251282051282051,0.004252307692307692,0.005356410256410256,0.0042697435897435885,0.005025128205128205,0.0049630769230769225,0.004906153846153846,0.0049584615384615375,0.004862564102564102
1785785386.234375,0.0042497435897435884,0.004251282051282051,0.004247692307692307,0.00425025641025641,0.004251794871794871,0.004251282051282051,0.004252307692307692,0.00535128205128205,0.004266666666666666,0.005031794871794871,0.00497025641025641,0.00491025641025641,0.0049676923076923075,0.004863589743589743
1785785386.2421875,0.0042497435897435884,0.004251282051282051,0.004247692307692307,0.00425025641025641,0.004251794871794871,0.004251282051282051,0.004252307692307692,0.005356923076923076,0.004264102564102563,0.005023589743589743,0.004966666666666666,0.004907179487179486,0.004964615384615383,0.004863076923076922
1785785386.25,0.0042497435897435884,0.004251282051282051,0.004247692307692307,0.00425025641025641,0.004251794871794871,0.004251282051282051,0.004252307692307692,0.005347692307692308,0.00426051282051282,0.005025128205128205,0.004976923076923076,0.0049143589743589735,0.00497025641025641,0.004869230769230768
1785785386.2578125,0.0042497435897435884,0.004251282051282051,0.004247692307692307,0.00425025641025641,0.004251794871794871,0.004251282051282051,0.004252307692307692,0.0053492307692307684,0.004256410256410255,0.005023076923076923,0.004976923076923076,0.004911794871794871,0.0049676923076923075,0.004865128205128205
1785785386.265625,0.0042497435897435884,0.004251282051282051,0.004247692307692307,0.00425025641025641,0.004251794871794871,0.004251282051282051,0.004252307692307692,0.00535076923076923,0.004258461538461538,0.005026666666666666,0.0049764102564102556,0.004912820512820513,0.004969743589743589,0.0048682051282051275
1785785386.2734375,0.0042497435897435884,0.004251282051282051,0.004247692307692307,0.00425025641025641,0.004251794871794871,0.004251282051282051,0.004252307692307692,0.005354871794871794,0.004258461538461538,0.005018974358974358,0.00497025641025641,0.004907692307692307,0.004964615384615383,0.004871282051282051
1785785386.28125,0.0042497435897435884,0.004251282051282051,0.004247692307692307,0.00425025641025641,0.004251794871794871,0.004251282051282051,0.004252307692307692,0.005355384615384615,0.004263589743589743,0.005014871794871794,0.004969743589743589,0.004905641025641025,0.004955384615384615,0.004874358974358973
1785785386.2890625,0.0042497435897435884,0.004251282051282051,0.004247692307692307,0.00425025641025641,0.004251794871794871,0.004251282051282051,0.004252307692307692,0.00535128205128205,0.004268717948717948,0.005024102564102563,0.004972307692307692,0.00491025641025641,0.004961538461538461,0.004876410256410255
1785785386.296875,0.0042497435897435884,0.004251282051282051,0.004247692307692307,0.00425025641025641,0.004251794871794871,0.004251282051282051,0.004252307692307692,0.005356410256410256,0.004271282051282051,0.005022564102564102,0.004969743589743589,0.004911282051282051,0.004961538461538461,0.0048835897435897425
1785785386.3046875,0.0042497435897435884,0.004251282051282051,0.004247692307692307,0.00425025641025641,0.004251794871794871,0.004251282051282051,0.004252307692307692,0.00535025641025641,0.004272820512820513,0.0050271794871794865,0.004972820512820513,0.004909743589743588,0.004966666666666666,0.004888205128205128
1785785386.3125,0.0042497435897435884,0.004251282051282051,0.004247692307692307,0.00425025641025641,0.004251794871794871,0.004251282051282051,0.004252307692307692,0.005351794871794871,0.004272820512820513,0.005023589743589743,0.0049656410256410256,0.004903589743589743,0.004955384615384615,0.004878461538461538
1785785386.3203125,0.0042497435897435884,0.004251282051282051,0.004247692307692307,0.00425025641025641,0.004251794871794871,0.004251282051282051,0.004252307692307692,0.005346153846153845,0.004273333333333333,0.005032307692307691,0.004973333333333333,0.004915384615384615,0.004966153846153846,0.004886153846153846
1785785386.328125,0.0042497435897435884,0.004251282051282051,0.004247692307692307,0.00425025641025641,0.004251794871794871,0.004251282051282051,0.004252307692307692,0.0053538461538461535,0.0042723076923076924,0.005026666666666666,0.0049610256410256405,0.004911282051282051,0.0049564102564102555,0.004878461538461538
1785785386.3359375,0.0042497435897435884,0.004251282051282051,0.004247692307692307,0.00425025641025641,0.004251794871794871,0.004251282051282051,0.004252307692307692,0.005349743589743589,0.0042743589743589735,0.0050338461538461535,0.004966153846153846,0.004915384615384615,0.004961538461538461,0.004876923076923076
1785785386.34375,0.0042497435897435884,0.004251282051282051,0.004247692307692307,0.00425025641025641,0.004251794871794871,0.004251282051282051,0.004252307692307692,0.005358461538461538,0.004269230769230768,0.005024102564102563,0.004964102564102563,0.004908717948717948,0.0049543589743589736,0.004869743589743588
1785785386.3515625,0.0042497435897435884,0.004251282051282051,0.004247692307692307,0.00425025641025641,0.004251794871794871,0.004251282051282051,0.004252307692307692,0.005352820512820512,0.004266666666666666,0.00503025641025641,0.00497128205128205,0.004913846153846153,0.004962564102564102,0.004875897435897435
1785785386.359375,0.0042497435897435884,0.004250769230769231,0.004247692307692307,0.00425025641025641,0.004251794871794871,0.004251282051282051,0.004252307692307692,0.005357435897435896,0.004266666666666666,0.005026153846153845,0.004962564102564102,0.004909230769230768,0.00496,0.004869743589743588
1785785386.3671875,0.0042497435897435884,0.004251794871794871,0.004247692307692307,0.00425025641025641,0.004251794871794871,0.004251282051282051,0.004252307692307692,0.00535128205128205,0.004261538461538461,0.00503025641025641,0.00497025641025641,0.004913333333333333,0.004968205128205128,0.0048728205128205125
1785785386.375,0.0042497435897435884,0.004252820512820513,0.004247692307692307,0.00425025641025641,0.004251794871794871,0.004251282051282051,0.004252307692307692,0.005355897435897435,0.004256410256410255,0.00502051282051282,0.0049717948717948705,0.004908205128205128,0.00496051282051282,0.004872307692307691
1785785386.3828125,0.0042497435897435884,0.004252820512820513,0.004247692307692307,0.00425025641025641,0.004251794871794871,0.004251282051282051,0.004252307692307692,0.00535128205128205,0.004259487179487179,0.005022564102564102,0.004975384615384615,0.00491025641025641,0.004959487179487179,0.004877948717948718
1785785386.390625,0.0042497435897435884,0.004252307692307692,0.004247692307692307,0.00425025641025641,0.004251794871794871,0.004251282051282051,0.004252307692307692,0.005352820512820512,0.004262051282051281,0.005022564102564102,0.00497076923076923,0.004904615384615384,0.004957435897435896,0.004876923076923076
1785785386.3984375,0.0042497435897435884,0.004252820512820513,0.004247692307692307,0.00425025641025641,0.004251794871794871,0.004251282051282051,0.004252307692307692,0.005353333333333333,0.004268717948717948,0.005022051282051281,0.004973846153846153,0.004907692307692307,0.004959487179487179,0.004885641025641025
1785785386.40625,0.0042497435897435884,0.004252820512820513,0.004247692307692307,0.00425025641025641,0.004251794871794871,0.004251282051282051,0.004252307692307692,0.005354358974358974,0.004271794871794871,0.00502051282051282,0.004969230769230768,0.004907179487179486,0.004958974358974359,0.004889743589743588
1785785386.4140625,0.0042497435897435884,0.004252307692307692,0.004247692307692307,0.00425025641025641,0.004251794871794871,0.004251282051282051,0.004252307692307692,0.005356923076923076,0.004273846153846153,0.005019487179487178,0.004966153846153846,0.004905128205128205,0.004953846153846153,0.004885641025641025
1785785386.421875,0.0042497435897435884,0.004252820512820513,0.004247692307692307,0.00425025641025641,0.004251794871794871,0.004251282051282051,0.004252307692307692,0.005349743589743589,0.004277948717948718,0.005025128205128205,0.004973333333333333,0.004911794871794871,0.0049656410256410256,0.004887179487179486
1785785386.4296875,0.0042497435897435884,0.004252820512820513,0.004247692307692307,0.00425025641025641,0.004251794871794871,0.004251282051282051,0.004252307692307692,0.005355384615384615,0.0042764102564102555,0.005018461538461538,0.0049630769230769225,0.004909230769230768,0.00496,0.004884102564102564
1785785386.4375,0.0042497435897435884,0.004252307692307692,0.004247692307692307,0.00425025641025641,0.004251794871794871,0.004251282051282051,0.004252307692307692,0.005353333333333333,0.0042723076923076924,0.005027692307692308,0.004963589743589743,0.004911794871794871,0.004963589743589743,0.004884615384615384
1785785386.4453125,0.0042497435897435884,0.004252820512820513,0.004247692307692307,0.00425025641025641,0.004251794871794871,0.004251282051282051,0.004252307692307692,0.005357948717948717,0.004271282051282051,0.005026666666666666,0.004954871794871794,0.004904102564102563,0.00495025641025641,0.004874871794871794
1785785386.453125,0.0042497435897435884,0.004252307692307692,0.004247692307692307,0.00425025641025641,0.004251794871794871,0.004251282051282051,0.004252307692307692,0.00535076923076923,0.0042743589743589735,0.005032820512820512,0.004962564102564102,0.004911282051282051,0.004958974358974359,0.004876923076923076
1785785386.4609375,0.0042497435897435884,0.004252820512820513,0.004247692307692307,0.00425025641025641,0.004251794871794871,0.004251282051282051,0.004252307692307692,0.005359487179487178,0.004271282051282051,0.0050246153846153834,0.00496051282051282,0.004907692307692307,0.0049543589743589736,0.004868717948717948
1785785386.46875,0.0042497435897435884,0.004252307692307692,0.004247692307692307,0.00425025641025641,0.004251794871794871,0.004251282051282051,0.004252307692307692,0.005355384615384615,0.004267692307692307,0.0050292307692307685,0.00497025641025641,0.0049123076923076915,0.004968205128205128,0.004877948717948718
1785785386.4765625,0.0042497435897435884,0.004252820512820513,0.004247692307692307,0.00425025641025641,0.004251794871794871,0.004251282051282051,0.004252307692307692,0.005357435897435896,0.004264102564102563,0.005018461538461538,0.004962051282051281,0.004906153846153846,0.004961538461538461,0.004874358974358973
1785785386.484375,0.0042497435897435884,0.004252307692307692,0.004247692307692307,0.00425025641025641,0.004251794871794871,0.004251282051282051,0.004252307692307692,0.005348717948717948,0.0042610256410256404,0.005023589743589743,0.004972307692307692,0.004913333333333333,0.004967179487179486,0.004873846153846153
1785785386.4921875,0.0042497435897435884,0.004252820512820513,0.004247692307692307,0.00425025641025641,0.004251794871794871,0.004251282051282051,0.004252307692307692,0.005355384615384615,0.004257435897435898,0.005017948717948717,0.004972307692307692,0.004908717948717948,0.004962051282051281,0.004873333333333333
1785785386.5,0.0042497435897435884,0.004252307692307692,0.004247692307692307,0.00425025641025641,0.004251794871794871,0.004251282051282051,0.004252307692307692,0.00535128205128205,0.00426,0.005022564102564102,0.004974871794871794,0.004911794871794871,0.004964102564102563,0.00488102564102564
1785785386.5078125,0.0042497435897435884,0.004252820512820513,0.004247692307692307,0.00425025641025641,0.004251794871794871,0.004251282051282051,0.004252307692307692,0.005355384615384615,0.004265128205128205,0.005017435897435896,0.004966666666666666,0.004907692307692307,0.0049564102564102555,0.004876410256410255
1785785386.515625,0.0042497435897435884,0.004252307692307692,0.004247692307692307,0.00425025641025641,0.004251794871794871,0.004251282051282051,0.004252307692307692,0.005352307692307691,0.00427076923076923,0.005022051282051281,0.0049717948717948705,0.004908717948717948,0.004957435897435896,0.004883076923076922
1785785386.5234375,0.0042497435897435884,0.004252820512820513,0.004247692307692307,0.00425025641025641,0.004251794871794871,0.004251282051282051,0.004252307692307692,0.005349743589743589,0.00427025641025641,0.005026153846153845,0.004974358974358974,0.004909743589743588,0.004961538461538461,0.004887179487179486
1785785386.53125,0.0042497435897435884,0.004252307692307692,0.004247692307692307,0.00425025641025641,0.004251794871794871,0.004251282051282051,0.004252307692307692,0.005352820512820512,0.0042723076923076924,0.005024102564102563,0.0049717948717948705,0.0049123076923076915,0.004957948717948717,0.004887179487179486
1785785386.5390625,0.0042497435897435884,0.004252820512820513,0.004247692307692307,0.00425025641025641,0.004251794871794871,0.004251282051282051,0.004252307692307692,0.005352307692307691,0.0042743589743589735,0.0050271794871794865,0.0049656410256410256,0.004911282051282051,0.0049630769230769225,0.004885641025641025
1785785386.546875,0.0042497435897435884,0.004252820512820513,0.004247692307692307,0.00425025641025641,0.004251794871794871,0.004251282051282051,0.004252307692307692,0.0053538461538461535,0.00427076923076923,0.0050246153846153834,0.0049584615384615375,0.004906153846153846,0.00496,0.004882051282051281
1785785386.5546875,0.0042497435897435884,0.004252307692307692,0.004247692307692307,0.00425025641025641,0.004251794871794871,0.004251282051282051,0.004252307692307692,0.0053492307692307684,0.004271282051282051,0.00503128205128205,0.004969743589743589,0.0049123076923076915,0.004961538461538461,0.004885641025641025
1785785386.5625,0.0042497435897435884,0.004252820512820513,0.004247692307692307,0.00425025641025641,0.004251794871794871,0.004251282051282051,0.004252307692307692,0.005354871794871794,0.004273846153846153,0.005028717948717948,0.004962564102564102,0.004908717948717948,0.004949230769230768,0.004874871794871794
1785785386.5703125,0.0042497435897435884,0.004252307692307692,0.004247692307692307,0.00425025641025641,0.004251794871794871,0.004251282051282051,0.004252307692307692,0.005348717948717948,0.0042764102564102555,0.005036923076923076,0.004967179487179486,0.0049143589743589735,0.004964615384615383,0.00488
1785785386.578125,0.0042497435897435884,0.004252820512820513,0.004247692307692307,0.00425025641025641,0.004251794871794871,0.004251282051282051,0.004252307692307692,0.005357435897435896,0.004271794871794871,0.0050271794871794865,0.004963589743589743,0.004909230769230768,0.004959487179487179,0.004875897435897435
1785785386.5859375,0.0042497435897435884,0.004252307692307692,0.004247692307692307,0.00425025641025641,0.004251794871794871,0.004251282051282051,0.004252307692307692,0.005355897435897435,0.004268717948717948,0.00503076923076923,0.0049717948717948705,0.004911794871794871,0.004966666666666666,0.004874358974358973
1785785386.59375,0.0042497435897435884,0.004252820512820513,0.004247692307692307,0.00425025641025641,0.004251794871794871,0.004251282051282051,0.004252307692307692,0.005361538461538461,0.004266666666666666,0.00502051282051282,0.0049656410256410256,0.004903589743589743,0.004962051282051281,0.004866666666666666
1785785386.6015625,0.0042497435897435884,0.004252307692307692,0.004247692307692307,0.00425025641025641,0.004251794871794871,0.004251282051282051,0.004252307692307692,0.0053492307692307684,0.00426051282051282,0.005027692307692308,0.004973846153846153,0.004911794871794871,0.004968717948717948,0.004874871794871794
1785785386.609375,0.0042497435897435884,0.004252820512820513,0.004247692307692307,0.00425025641025641,0.004251794871794871,0.004251282051282051,0.004252307692307692,0.005354358974358974,0.004257435897435898,0.005021538461538461,0.004968205128205128,0.004911282051282051,0.0049564102564102555,0.0048728205128205125
1785785386.6171875,0.0042497435897435884,0.004252307692307692,0.004247692307692307,0.00425025641025641,0.004251794871794871,0.004251282051282051,0.004252307692307692,0.005352307692307691,0.004264102564102563,0.005027692307692308,0.0049764102564102556,0.004913846153846153,0.004963589743589743,0.004878461538461538
1785785386.625,0.0042497435897435884,0.004252820512820513,0.004247692307692307,0.00425025641025641,0.004251794871794871,0.004251282051282051,0.004252307692307692,0.005354871794871794,0.0042656410256410255,0.005021538461538461,0.004972820512820513,0.004905641025641025,0.0049584615384615375,0.004879487179487179
1785785386.6328125,0.0042497435897435884,0.004252307692307692,0.004247692307692307,0.00425025641025641,0.004251794871794871,0.004251282051282051,0.004252307692307692,0.005349743589743589,0.004268205128205128,0.005023589743589743,0.004977948717948717,0.00491025641025641,0.00496,0.004888717948717948
1785785386.640625,0.0042497435897435884,0.004252820512820513,0.004247692307692307,0.00425025641025641,0.004251794871794871,0.004251282051282051,0.004252307692307692,0.005352820512820512,0.004272820512820513,0.0050246153846153834,0.00497128205128205,0.004906666666666666,0.0049610256410256405,0.004885641025641025
1785785386.6484375,0.0042497435897435884,0.004252307692307692,0.004247692307692307,0.00425025641025641,0.004251794871794871,0.004251282051282051,0.004252307692307692,0.0053538461538461535,0.004275897435897435,0.005026666666666666,0.004968717948717948,0.004907179487179486,0.004962051282051281,0.004883076923076922
1785785386.65625,0.0042497435897435884,0.004252820512820513,0.004247692307692307,0.00425025641025641,0.004251794871794871,0.004251282051282051,0.004252307692307692,0.00535025641025641,0.0042743589743589735,0.005028717948717948,0.0049717948717948705,0.00491076923076923,0.0049656410256410256,0.004884102564102564
1785785386.6640625,0.0042497435897435884,0.004252820512820513,0.004247692307692307,0.00425025641025641,0.004251794871794871,0.004251282051282051,0.004252307692307692,0.005354358974358974,0.004273333333333333,0.005026666666666666,0.004964615384615383,0.004909743589743588,0.004957435897435896,0.004883076923076922
1785785386.671875,0.0042497435897435884,0.004252307692307692,0.004247692307692307,0.00425025641025641,0.004251794871794871,0.004251282051282051,0.004252307692307692,0.005352307692307691,0.004273333333333333,0.005034871794871794,0.004963589743589743,0.004913333333333333,0.004957948717948717,0.00488051282051282
1785785386.6796875,0.0042497435897435884,0.004252820512820513,0.004247692307692307,0.00425025641025641,0.004251794871794871,0.004251282051282051,0.004252307692307692,0.005354358974358974,0.0042723076923076924,0.005029743589743589,0.0049610256410256405,0.004909743589743588,0.0049543589743589736,0.004872307692307691
1785785386.6875,0.0042497435897435884,0.004252307692307692,0.004247692307692307,0.00425025641025641,0.004251794871794871,0.004251282051282051,0.004252307692307692,0.0053471794871794865,0.00427076923076923,0.00503025641025641,0.004968717948717948,0.004913846153846153,0.004966153846153846,0.004874358974358973
1785785386.6953125,0.0042497435897435884,0.004252820512820513,0.004247692307692307,0.00425025641025641,0.004251794871794871,0.004251282051282051,0.004252307692307692,0.005353333333333333,0.004263589743589743,0.005021025641025641,0.004962564102564102,0.004908717948717948,0.004958974358974359,0.0048682051282051275
1785785386.703125,0.0042497435897435884,0.004252307692307692,0.004247692307692307,0.00425025641025641,0.004251794871794871,0.004251282051282051,0.004252307692307692,0.00535025641025641,0.004262051282051281,0.005027692307692308,0.0049784615384615375,0.0049143589743589735,0.0049717948717948705,0.004877948717948718
1785785386.7109375,0.0042497435897435884,0.004252820512820513,0.004247692307692307,0.00425025641025641,0.004251794871794871,0.004251282051282051,0.004252307692307692,0.005356410256410256,0.004264102564102563,0.005021538461538461,0.004975384615384615,0.00491025641025641,0.004964615384615383,0.004873846153846153
1785785386.71875,0.0042497435897435884,0.004252307692307692,0.004247692307692307,0.00425025641025641,0.004251794871794871,0.004251282051282051,0.004252307692307692,0.005347692307692308,0.0042589743589743585,0.0050246153846153834,0.0049764102564102556,0.004915897435897435,0.0049676923076923075,0.004873333333333333
1785785386.7265625,0.0042497435897435884,0.004252820512820513,0.004247692307692307,0.00425025641025641,0.004251794871794871,0.004251282051282051,0.004252307692307692,0.005357435897435896,0.004257948717948718,0.005013333333333333,0.004966666666666666,0.004907692307692307,0.004957435897435896,0.004873846153846153
1785785386.734375,0.0042497435897435884,0.004252307692307692,0.004247692307692307,0.00425025641025641,0.004251794871794871,0.004251282051282051,0.004252307692307692,0.005353333333333333,0.004268205128205128,0.0050246153846153834,0.004975897435897435,0.004913333333333333,0.0049656410256410256,0.004884615384615384
1785785386.7421875,0.0042497435897435884,0.004252820512820513,0.004247692307692307,0.00425025641025641,0.004251794871794871,0.004251282051282051,0.004252307692307692,0.005356923076923076,0.0042697435897435885,0.005023076923076923,0.0049676923076923075,0.00491025641025641,0.004956923076923076,0.004878974358974358
1785785386.75,0.0042497435897435884,0.004252307692307692,0.004247692307692307,0.00425025641025641,0.004251794871794871,0.004251282051282051,0.004252307692307692,0.00535076923076923,0.004271282051282051,0.005025641025641025,0.0049717948717948705,0.004912820512820513,0.004956923076923076,0.004885128205128205
1785785386.7578125,0.0042497435897435884,0.004252820512820513,0.004247692307692307,0.00425025641025641,0.004251794871794871,0.004251282051282051,0.004252307692307692,0.005352307692307691,0.004273846153846153,0.005025128205128205,0.004969230769230768,0.004906666666666666,0.0049564102564102555,0.004882564102564102
1785785386.765625,0.0042497435897435884,0.004252307692307692,0.004247692307692307,0.00425025641025641,0.004251794871794871,0.004251282051282051,0.004252307692307692,0.005351794871794871,0.0042764102564102555,0.005027692307692308,0.00497076923076923,0.004908717948717948,0.004963589743589743,0.004885641025641025
1785785386.7734375,0.0042497435897435884,0.004252820512820513,0.004247692307692307,0.00425025641025641,0.004251794871794871,0.004251282051282051,0.004252307692307692,0.005351794871794871,0.004275897435897435,0.005026153846153845,0.004967179487179486,0.004908717948717948,0.004965128205128204,0.004885641025641025
1785785386.78125,0.0042497435897435884,0.004252820512820513,0.004247692307692307,0.00425025641025641,0.004251794871794871,0.004251282051282051,0.004252307692307692,0.00535128205128205,0.004275384615384615,0.005027692307692308,0.004962051282051281,0.004907692307692307,0.0049564102564102555,0.004882051282051281
1785785386.7890625,0.0042497435897435884,0.004252307692307692,0.004247692307692307,0.00425025641025641,0.004251794871794871,0.004251282051282051,0.004252307692307692,0.00535076923076923,0.004273333333333333,0.00503025641025641,0.004966666666666666,0.00491076923076923,0.004957948717948717,0.004878974358974358
1785785386.796875,0.0042497435897435884,0.004252820512820513,0.004247692307692307,0.00425025641025641,0.004251794871794871,0.004251282051282051,0.004252307692307692,0.005358461538461538,0.00427025641025641,0.005022564102564102,0.0049630769230769225,0.004906666666666666,0.004953846153846153,0.004873333333333333
1785785386.8046875,0.0042497435897435884,0.004252307692307692,0.004247692307692307,0.00425025641025641,0.004251794871794871,0.004251282051282051,0.004252307692307692,0.005354871794871794,0.00427025641025641,0.00503025641025641,0.0049676923076923075,0.004909743589743588,0.004966153846153846,0.004875897435897435
1785785386.8125,0.0042497435897435884,0.004252820512820513,0.004247692307692307,0.00425025641025641,0.004251794871794871,0.004251282051282051,0.004252307692307692,0.005357435897435896,0.004263589743589743,0.0050246153846153834,0.0049656410256410256,0.004908205128205128,0.004957948717948717,0.00487025641025641
1785785386.8203125,0.0042497435897435884,0.004252307692307692,0.004247692307692307,0.00425025641025641,0.004251794871794871,0.004251282051282051,0.004252307692307692,0.005348717948717948,0.004258461538461538,0.005026666666666666,0.004974358974358974,0.004917435897435896,0.004964615384615383,0.004875897435897435
1785785386.828125,0.0042497435897435884,0.004252820512820513,0.004247692307692307,0.00425025641025641,0.004251794871794871,0.004251282051282051,0.004252307692307692,0.005355384615384615,0.004262051282051281,0.00502,0.004969230769230768,0.00491076923076923,0.0049584615384615375,0.004872307692307691
1785785386.8359375,0.0042497435897435884,0.004252307692307692,0.004247692307692307,0.00425025641025641,0.004251794871794871,0.004251282051282051,0.004252307692307692,0.00535025641025641,0.004263076923076922,0.0050246153846153834,0.004973846153846153,0.0049123076923076915,0.004966153846153846,0.004875384615384615
1785785386.84375,0.0042497435897435884,0.004252820512820513,0.004247692307692307,0.00425025641025641,0.004251794871794871,0.004251282051282051,0.004252307692307692,0.005356923076923076,0.004261538461538461,0.00501128205128205,0.0049630769230769225,0.004905128205128205,0.004952820512820513,0.004871794871794871
1785785386.8515625,0.0042497435897435884,0.004252307692307692,0.004247692307692307,0.00425025641025641,0.004251794871794871,0.004251282051282051,0.004252307692307692,0.005348205128205128,0.004266666666666666,0.005022564102564102,0.004972307692307692,0.004911282051282051,0.004962051282051281,0.004882564102564102
1785785386.859375,0.0042497435897435884,0.004252820512820513,0.004247692307692307,0.00425025641025641,0.004251794871794871,0.004251282051282051,0.004252307692307692,0.005355897435897435,0.004268717948717948,0.005022051282051281,0.004967179487179486,0.004906153846153846,0.004955384615384615,0.00488
1785785386.8671875,0.0042497435897435884,0.004252307692307692,0.004247692307692307,0.00425025641025641,0.004251794871794871,0.004251282051282051,0.004252307692307692,0.005351794871794871,0.004273333333333333,0.005024102564102563,0.004974871794871794,0.0049123076923076915,0.004962051282051281,0.004886153846153846
1785785386.875,0.0042497435897435884,0.004252820512820513,0.004247692307692307,0.00425025641025641,0.004251794871794871,0.004251282051282051,0.004252307692307692,0.00535076923076923,0.0042764102564102555,0.005022564102564102,0.004966153846153846,0.004906153846153846,0.0049630769230769225,0.0048835897435897425
1785785386.8828125,0.0042497435897435884,0.004252307692307692,0.004247692307692307,0.00425025641025641,0.004251794871794871,0.004251282051282051,0.004252307692307692,0.005346666666666666,0.004277948717948718,0.005031794871794871,0.004968717948717948,0.004907692307692307,0.004963589743589743,0.004884615384615384
1785785386.890625,0.0042497435897435884,0.004252820512820513,0.004247692307692307,0.00425025641025641,0.004251794871794871,0.004251282051282051,0.004252307692307692,0.00535076923076923,0.004273846153846153,0.005029743589743589,0.004968717948717948,0.004909230769230768,0.004958974358974359,0.00488051282051282
1785785386.8984375,0.0042497435897435884,0.004252820512820513,0.004247692307692307,0.00425025641025641,0.004251794871794871,0.004251282051282051,0.004252307692307692,0.005351794871794871,0.004273333333333333,0.005027692307692308,0.004964102564102563,0.0049123076923076915,0.004957435897435896,0.004879487179487179
1785785386.90625,0.0042497435897435884,0.004252307692307692,0.004247692307692307,0.00425025641025641,0.004251794871794871,0.004251282051282051,0.004252307692307692,0.005351794871794871,0.004272820512820513,0.005029743589743589,0.004964615384615383,0.0049123076923076915,0.0049610256410256405,0.004878974358974358
1785785386.9140625,0.0042497435897435884,0.004252820512820513,0.004247692307692307,0.00425025641025641,0.004251794871794871,0.004251282051282051,0.004252307692307692,0.005357948717948717,0.004269230769230768,0.005026666666666666,0.004966153846153846,0.004907692307692307,0.004955897435897435,0.0048728205128205125
1785785386.921875,0.0042497435897435884,0.004252307692307692,0.004247692307692307,0.00425025641025641,0.004251794871794871,0.004251282051282051,0.004252307692307692,0.005354358974358974,0.004269230769230768,0.00503025641025641,0.004969230769230768,0.004912820512820513,0.004966666666666666,0.004875384615384615
1785785386.9296875,0.0042497435897435884,0.004252820512820513,0.004247692307692307,0.00425025641025641,0.004251794871794871,0.004251282051282051,0.004252307692307692,0.005354871794871794,0.004266666666666666,0.005025641025641025,0.004964615384615383,0.004911794871794871,0.004963589743589743,0.004874871794871794
1785785386.9375,0.0042497435897435884,0.004252307692307692,0.004247692307692307,0.00425025641025641,0.004251794871794871,0.004251282051282051,0.004252307692307692,0.005346153846153845,0.004262051282051281,0.005029743589743589,0.004977948717948717,0.004915384615384615,0.004969743589743589,0.004878461538461538
1785785386.9453125,0.0042497435897435884,0.004252820512820513,0.004247692307692307,0.00425025641025641,0.004251794871794871,0.004251282051282051,0.004252307692307692,0.005353333333333333,0.00426,0.00502051282051282,0.004977948717948717,0.004909743589743588,0.004962051282051281,0.004873846153846153
1785785386.953125,0.0042497435897435884,0.004252307692307692,0.004247692307692307,0.00425025641025641,0.004251794871794871,0.004251282051282051,0.004252307692307692,0.00535025641025641,0.004262051282051281,0.0050246153846153834,0.004977948717948717,0.0049143589743589735,0.0049676923076923075,0.004879487179487179
1785785386.9609375,0.0042497435897435884,0.004252820512820513,0.004247692307692307,0.00425025641025641,0.004251794871794871,0.004251282051282051,0.004252307692307692,0.005357435897435896,0.004262051282051281,0.005014871794871794,0.004963589743589743,0.004907179487179486,0.004952820512820513,0.004875897435897435
1785785386.96875,0.0042497435897435884,0.004252307692307692,0.004247692307692307,0.00425025641025641,0.004251794871794871,0.004251282051282051,0.004252307692307692,0.005348717948717948,0.004264102564102563,0.0050246153846153834,0.004975897435897435,0.0049123076923076915,0.00496051282051282,0.004885641025641025
1785785386.9765625,0.0042497435897435884,0.004252820512820513,0.004247692307692307,0.00425025641025641,0.004251794871794871,0.004251282051282051,0.004252307692307692,0.005358461538461538,0.0042656410256410255,0.005018461538461538,0.00497128205128205,0.004904615384615384,0.004952307692307692,0.004882564102564102
1785785386.984375,0.0042497435897435884,0.004252307692307692,0.004247692307692307,0.00425025641025641,0.004251794871794871,0.004251282051282051,0.004252307692307692,0.005351794871794871,0.004273333333333333,0.005028205128205128,0.004972820512820513,0.00491025641025641,0.00496,0.004886666666666666
1785785386.9921875,0.0042497435897435884,0.004252820512820513,0.004247692307692307,0.00425025641025641,0.004251794871794871,0.004251282051282051,0.004252307692307692,0.005348717948717948,0.004277948717948718,0.005028717948717948,0.0049630769230769225,0.004907179487179486,0.00496051282051282,0.00488
1785785387.0,0.0042497435897435884,0.004252307692307692,0.004247692307692307,0.00425025641025641,0.004251794871794871,0.004251282051282051,0.004252307692307692,0.0053471794871794865,0.0042764102564102555,0.0050292307692307685,0.004969230769230768,0.004911794871794871,0.004964615384615383,0.004883076923076922
1785785387.0078125,0.0042497435897435884,0.004252820512820513,0.004247692307692307,0.00425025641025641,0.004251794871794871,0.004251282051282051,0.004252307692307692,0.005354358974358974,0.004271794871794871,0.005025128205128205,0.004964615384615383,0.004909230769230768,0.0049584615384615375,0.004876410256410255
1785785387.015625,0.0042497435897435884,0.004252820512820513,0.004247692307692307,0.00425025641025641,0.004251794871794871,0.004251282051282051,0.004252307692307692,0.005352820512820512,0.004275897435897435,0.00503076923076923,0.0049610256410256405,0.0049123076923076915,0.004957948717948717,0.004875897435897435
1785785387.0234375,0.0042497435897435884,0.004252307692307692,0.004247692307692307,0.00425025641025641,0.004251794871794871,0.004251282051282051,0.004252307692307692,0.00535076923076923,0.0042764102564102555,0.0050292307692307685,0.0049630769230769225,0.004911794871794871,0.0049610256410256405,0.004877435897435897
1785785387.03125,0.0042497435897435884,0.004252820512820513,0.004247692307692307,0.00425025641025641,0.004251794871794871,0.004251282051282051,0.004252307692307692,0.00535025641025641,0.0042697435897435885,0.005026666666666666,0.004964615384615383,0.004909230769230768,0.004958974358974359,0.004872307692307691
1785785387.0390625,0.0042497435897435884,0.004252307692307692,0.004247692307692307,0.00425025641025641,0.004251794871794871,0.004251282051282051,0.004252307692307692,0.005349743589743589,0.004267179487179486,0.00503128205128205,0.00497076923076923,0.0049123076923076915,0.0049676923076923075,0.004872307692307691
1785785387.046875,0.0042497435897435884,0.004252820512820513,0.004247692307692307,0.00425025641025641,0.004251794871794871,0.004251282051282051,0.004252307692307692,0.005355897435897435,0.004262564102564102,0.005023076923076923,0.004969230769230768,0.004909743589743588,0.004963589743589743,0.00487025641025641
1785785387.0546875,0.0042497435897435884,0.004252307692307692,0.004247692307692307,0.00425025641025641,0.004251794871794871,0.004251282051282051,0.004252307692307692,0.00535128205128205,0.00426,0.005022564102564102,0.004973333333333333,0.0049123076923076915,0.004969230769230768,0.004875384615384615
1785785387.0625,0.0042497435897435884,0.004252820512820513,0.004247692307692307,0.00425025641025641,0.004251794871794871,0.004251282051282051,0.004252307692307692,0.005355897435897435,0.004266153846153846,0.005017435897435896,0.00497128205128205,0.004908717948717948,0.0049610256410256405,0.004876410256410255
1785785387.0703125,0.0042497435897435884,0.004252307692307692,0.004247692307692307,0.00425025641025641,0.004251794871794871,0.004251282051282051,0.004252307692307692,0.0053471794871794865,0.004267692307692307,0.005028205128205128,0.004977948717948717,0.0049123076923076915,0.004966666666666666,0.00488102564102564
1785785387.078125,0.0042497435897435884,0.004252820512820513,0.004247692307692307,0.00425025641025641,0.004251794871794871,0.004251282051282051,0.004252307692307692,0.005354871794871794,0.004264102564102563,0.005017948717948717,0.0049676923076923075,0.004906153846153846,0.004954871794871794,0.004877435897435897
1785785387.0859375,0.0042497435897435884,0.004252307692307692,0.004247692307692307,0.00425025641025641,0.004251794871794871,0.004251282051282051,0.004252307692307692,0.00535076923076923,0.004268717948717948,0.0050246153846153834,0.004974871794871794,0.004911794871794871,0.0049630769230769225,0.004888205128205128
1785785387.09375,0.0042497435897435884,0.004252820512820513,0.004247692307692307,0.00425025641025641,0.004251794871794871,0.004251282051282051,0.004252307692307692,0.005356923076923076,0.004271794871794871,0.005021538461538461,0.004965128205128204,0.004903589743589743,0.004953333333333333,0.004883076923076922
1785785387.1015625,0.0042497435897435884,0.004252307692307692,0.004247692307692307,0.00425025641025641,0.004251794871794871,0.004251282051282051,0.004252307692307692,0.005348205128205128,0.0042764102564102555,0.0050292307692307685,0.004974871794871794,0.0049123076923076915,0.004965128205128204,0.0048902564102564095
1785785387.109375,0.0042497435897435884,0.004252820512820513,0.004247692307692307,0.00425025641025641,0.004251794871794871,0.004251282051282051,0.004252307692307692,0.005352820512820512,0.004278461538461538,0.0050246153846153834,0.0049676923076923075,0.004908717948717948,0.0049610256410256405,0.004885641025641025
1785785387.1171875,0.0042497435897435884,0.004252307692307692,0.004247692307692307,0.00425025641025641,0.004251794871794871,0.004251282051282051,0.004252307692307692,0.005349743589743589,0.004277435897435897,0.005032820512820512,0.004969743589743589,0.00491076923076923,0.0049610256410256405,0.0048835897435897425
1785785387.125,0.0042497435897435884,0.004252820512820513,0.004247692307692307,0.00425025641025641,0.004251794871794871,0.004251282051282051,0.004252307692307692,0.0053538461538461535,0.0042723076923076924,0.00503076923076923,0.004964102564102563,0.004909230769230768,0.0049564102564102555,0.004876923076923076
1785785387.1328125,0.0042497435897435884,0.004252820512820513,0.004247692307692307,0.00425025641025641,0.004251794871794871,0.004251282051282051,0.004252307692307692,0.00535128205128205,0.004274871794871795,0.005031794871794871,0.0049656410256410256,0.004915897435897435,0.00496,0.004882051282051281
1785785387.140625,0.0042497435897435884,0.004252307692307692,0.004247692307692307,0.00425025641025641,0.004251794871794871,0.004251282051282051,0.004252307692307692,0.00535128205128205,0.0042764102564102555,0.00503025641025641,0.004964615384615383,0.00491076923076923,0.004962564102564102,0.004877948717948718
1785785387.1484375,0.0042497435897435884,0.004252820512820513,0.004247692307692307,0.00425025641025641,0.004251794871794871,0.004251282051282051,0.004252307692307692,0.005353333333333333,0.00427025641025641,0.005027692307692308,0.004966666666666666,0.004906666666666666,0.004964615384615383,0.004871282051282051
1785785387.15625,0.0042497435897435884,0.004252307692307692,0.004247692307692307,0.00425025641025641,0.004251794871794871,0.004251282051282051,0.004252307692307692,0.005352820512820512,0.004264615384615384,0.005025128205128205,0.004973846153846153,0.004911794871794871,0.0049717948717948705,0.004871282051282051
1785785387.1640625,0.0042497435897435884,0.004252820512820513,0.004247692307692307,0.00425025641025641,0.004251794871794871,0.004251282051282051,0.004252307692307692,0.0053538461538461535,0.004262564102564102,0.005022564102564102,0.004975897435897435,0.0049143589743589735,0.00497025641025641,0.00487025641025641
1785785387.171875,0.0042497435897435884,0.004252307692307692,0.004247692307692307,0.00425025641025641,0.004251794871794871,0.004251282051282051,0.004252307692307692,0.005352307692307691,0.004262051282051281,0.005023589743589743,0.004977948717948717,0.004913846153846153,0.004973333333333333,0.004875384615384615
1785785387.1796875,0.0042497435897435884,0.004252820512820513,0.004247692307692307,0.00425025641025641,0.004251794871794871,0.004251282051282051,0.004252307692307692,0.005358461538461538,0.004264102564102563,0.005013333333333333,0.00497025641025641,0.004907692307692307,0.00496,0.004878461538461538
1785785387.1875,0.0042497435897435884,0.004252307692307692,0.004247692307692307,0.00425025641025641,0.004251794871794871,0.004251282051282051,0.004252307692307692,0.005348717948717948,0.004264615384615384,0.005021025641025641,0.004977435897435896,0.004913333333333333,0.0049656410256410256,0.0048835897435897425
1785785387.1953125,0.0042497435897435884,0.004252820512820513,0.004247692307692307,0.00425025641025641,0.004251794871794871,0.004251282051282051,0.004252307692307692,0.005356410256410256,0.004266666666666666,0.005018974358974358,0.004972307692307692,0.004909230769230768,0.004956923076923076,0.004882051282051281
1785785387.203125,0.0042497435897435884,0.004252307692307692,0.004247692307692307,0.00425025641025641,0.004251794871794871,0.004251282051282051,0.004252307692307692,0.005348717948717948,0.004273333333333333,0.0050292307692307685,0.004978974358974359,0.004916410256410255,0.004963589743589743,0.004891282051282051
1785785387.2109375,0.0042497435897435884,0.004252820512820513,0.004247692307692307,0.00425025641025641,0.004251794871794871,0.004251282051282051,0.004252307692307692,0.0053538461538461535,0.004273846153846153,0.00502,0.004964615384615383,0.004909743589743588,0.004954871794871794,0.004882564102564102
1785785387.21875,0.0042497435897435884,0.004252307692307692,0.004247692307692307,0.00425025641025641,0.004251794871794871,0.004251282051282051,0.004252307692307692,0.005348205128205128,0.004274871794871795,0.0050271794871794865,0.004969230769230768,0.0049123076923076915,0.004965128205128204,0.004886153846153846
1785785387.2265625,0.0042497435897435884,0.004252820512820513,0.004247692307692307,0.00425025641025641,0.004251794871794871,0.004251282051282051,0.004252307692307692,0.0053538461538461535,0.0042743589743589735,0.005026153846153845,0.004962564102564102,0.004904615384615384,0.004956923076923076,0.004882564102564102
1785785387.234375,0.0042497435897435884,0.004252307692307692,0.004247692307692307,0.00425025641025641,0.004251794871794871,0.004251282051282051,0.004252307692307692,0.005349743589743589,0.004273333333333333,0.005031794871794871,0.004969230769230768,0.004911794871794871,0.004962564102564102,0.004887179487179486
1785785387.2421875,0.0042497435897435884,0.004252820512820513,0.004247692307692307,0.00425025641025641,0.004251794871794871,0.004251282051282051,0.004252307692307692,0.0053538461538461535,0.0042723076923076924,0.005025128205128205,0.004962564102564102,0.004908205128205128,0.004954871794871794,0.004874358974358973
1785785387.25,0.0042497435897435884,0.004252820512820513,0.004247692307692307,0.00425025641025641,0.004251794871794871,0.004251282051282051,0.004252307692307692,0.005348205128205128,0.004274871794871795,0.00503076923076923,0.004965128205128204,0.004909743589743588,0.004958974358974359,0.004873846153846153
1785785387.2578125,0.0042497435897435884,0.004252307692307692,0.004247692307692307,0.00425025641025641,0.004251794871794871,0.004251282051282051,0.004252307692307692,0.00535128205128205,0.0042723076923076924,0.005027692307692308,0.0049676923076923075,0.004907692307692307,0.004964615384615383,0.004874358974358973
1785785387.265625,0.0042497435897435884,0.004252820512820513,0.004247692307692307,0.00425025641025641,0.004251794871794871,0.004251282051282051,0.004252307692307692,0.005352307692307691,0.004268205128205128,0.005026153846153845,0.004972307692307692,0.004911794871794871,0.004965128205128204,0.004873333333333333
1785785387.2734375,0.0042497435897435884,0.004252307692307692,0.004247692307692307,0.00425025641025641,0.004251794871794871,0.004251282051282051,0.004252307692307692,0.00535128205128205,0.004266666666666666,0.005026666666666666,0.004973333333333333,0.004912820512820513,0.004966666666666666,0.004873846153846153
1785785387.28125,0.0042497435897435884,0.004252820512820513,0.004247692307692307,0.00425025641025641,0.004251794871794871,0.004251282051282051,0.004252307692307692,0.00535128205128205,0.004264615384615384,0.005024102564102563,0.0049717948717948705,0.00491076923076923,0.0049676923076923075,0.004874358974358973
1785785387.2890625,0.0042497435897435884,0.004252307692307692,0.004247692307692307,0.00425025641025641,0.004251794871794871,0.004251282051282051,0.004252307692307692,0.005349743589743589,0.004262564102564102,0.005022564102564102,0.004973846153846153,0.0049123076923076915,0.004969230769230768,0.004875897435897435
1785785387.296875,0.0042497435897435884,0.004252820512820513,0.004247692307692307,0.00425025641025641,0.004251794871794871,0.004251282051282051,0.004252307692307692,0.005353333333333333,0.004263589743589743,0.005017435897435896,0.004973846153846153,0.00491076923076923,0.0049584615384615375,0.004877435897435897
1785785387.3046875,0.0042497435897435884,0.004252307692307692,0.004247692307692307,0.00425025641025641,0.004251794871794871,0.004251282051282051,0.004252307692307692,0.0053471794871794865,0.004265128205128205,0.0050246153846153834,0.0049784615384615375,0.004911794871794871,0.004966153846153846,0.004885641025641025
1785785387.3125,0.0042497435897435884,0.004252820512820513,0.004247692307692307,0.00425025641025641,0.004251794871794871,0.004251282051282051,0.004252307692307692,0.005356923076923076,0.00427025641025641,0.005019487179487178,0.004969743589743589,0.004907692307692307,0.004957948717948717,0.004885641025641025
1785785387.3203125,0.0042497435897435884,0.004252307692307692,0.004247692307692307,0.00425025641025641,0.004251794871794871,0.004251282051282051,0.004252307692307692,0.00535076923076923,0.0042764102564102555,0.0050292307692307685,0.004975897435897435,0.004917435897435896,0.004964615384615383,0.004892820512820513
1785785387.328125,0.0042497435897435884,0.004252820512820513,0.004247692307692307,0.00425025641025641,0.004251794871794871,0.004251282051282051,0.004252307692307692,0.005354358974358974,0.0042764102564102555,0.005021538461538461,0.004964615384615383,0.004907179487179486,0.004955384615384615,0.004884615384615384
1785785387.3359375,0.0042497435897435884,0.004252307692307692,0.004247692307692307,0.00425025641025641,0.004251794871794871,0.004251282051282051,0.004252307692307692,0.005348717948717948,0.004277435897435897,0.005026666666666666,0.004972307692307692,0.004909230769230768,0.004968205128205128,0.004888717948717948
1785785387.34375,0.0042497435897435884,0.004252820512820513,0.004247692307692307,0.00425025641025641,0.004251794871794871,0.004251282051282051,0.004252307692307692,0.005354358974358974,0.004273846153846153,0.005023076923076923,0.004963589743589743,0.004905128205128205,0.00496,0.00488
1785785387.3515625,0.0042497435897435884,0.004252307692307692,0.004247692307692307,0.00425025641025641,0.004251794871794871,0.004251282051282051,0.004252307692307692,0.005347692307692308,0.004274871794871795,0.005032820512820512,0.004968205128205128,0.004912820512820513,0.0049610256410256405,0.00488051282051282
1785785387.359375,0.0042497435897435884,0.004252820512820513,0.004247692307692307,0.00425025641025641,0.004251794871794871,0.004251282051282051,0.004252307692307692,0.005352307692307691,0.004273846153846153,0.005026666666666666,0.004962564102564102,0.004908205128205128,0.004953846153846153,0.004872307692307691
1785785387.3671875,0.0042497435897435884,0.004252820512820513,0.004247692307692307,0.00425025641025641,0.004251794871794871,0.004251282051282051,0.004252307692307692,0.005348205128205128,0.004271794871794871,0.00503076923076923,0.0049656410256410256,0.004911794871794871,0.0049630769230769225,0.004876410256410255
1785785387.375,0.0042497435897435884,0.004252307692307692,0.004247692307692307,0.00425025641025641,0.004251794871794871,0.004251282051282051,0.004252307692307692,0.005351794871794871,0.0042723076923076924,0.005027692307692308,0.004964102564102563,0.004909743589743588,0.004964615384615383,0.004874871794871794
1785785387.3828125,0.0042497435897435884,0.004252820512820513,0.004247692307692307,0.00425025641025641,0.004251794871794871,0.004251282051282051,0.004252307692307692,0.005351794871794871,0.0042723076923076924,0.005026153846153845,0.00497076923076923,0.004912820512820513,0.004966666666666666,0.004877435897435897
1785785387.390625,0.0042497435897435884,0.004252307692307692,0.004247692307692307,0.00425025641025641,0.004251794871794871,0.004251282051282051,0.004252307692307692,0.005354358974358974,0.004267692307692307,0.005021538461538461,0.00497076923076923,0.00491025641025641,0.004966153846153846,0.004874871794871794
1785785387.3984375,0.0042497435897435884,0.004252820512820513,0.004247692307692307,0.00425025641025641,0.004251794871794871,0.004251282051282051,0.004252307692307692,0.0053538461538461535,0.004264615384615384,0.005021538461538461,0.004973333333333333,0.004908717948717948,0.004965128205128204,0.004874358974358973
1785785387.40625,0.0042497435897435884,0.004252307692307692,0.004247692307692307,0.00425025641025641,0.004251794871794871,0.004251282051282051,0.004252307692307692,0.005352820512820512,0.004262564102564102,0.005022051282051281,0.0049784615384615375,0.004911282051282051,0.004969230769230768,0.004877948717948718
1785785387.4140625,0.0042497435897435884,0.004252820512820513,0.004247692307692307,0.00425025641025641,0.004251794871794871,0.004251282051282051,0.004252307692307692,0.005353333333333333,0.004264615384615384,0.00502051282051282,0.004977435897435896,0.004915384615384615,0.0049610256410256405,0.00488051282051282
1785785387.421875,0.0042497435897435884,0.004252307692307692,0.004247692307692307,0.00425025641025641,0.004251794871794871,0.004251282051282051,0.004252307692307692,0.005344615384615383,0.004268205128205128,0.005026666666666666,0.0049784615384615375,0.004917948717948718,0.004966153846153846,0.004884615384615384
1785785387.4296875,0.0042497435897435884,0.004252820512820513,0.004247692307692307,0.00425025641025641,0.004251794871794871,0.004251282051282051,0.004252307692307692,0.005353333333333333,0.00427076923076923,0.00502051282051282,0.004972307692307692,0.004906666666666666,0.004959487179487179,0.004884615384615384
1785785387.4375,0.0042497435897435884,0.004252307692307692,0.004247692307692307,0.00425025641025641,0.004251794871794871,0.004251282051282051,0.004252307692307692,0.00535025641025641,0.004274871794871795,0.00503025641025641,0.004977948717948717,0.00491076923076923,0.004964615384615383,0.0048923076923076915
1785785387.4453125,0.0042497435897435884,0.004252820512820513,0.004247692307692307,0.00425025641025641,0.004251794871794871,0.004251282051282051,0.004252307692307692,0.0053538461538461535,0.004275384615384615,0.005025128205128205,0.0049656410256410256,0.00491025641025641,0.004952820512820513,0.004884102564102564
1785785387.453125,0.0042497435897435884,0.004252307692307692,0.004247692307692307,0.00425025641025641,0.004251794871794871,0.004251282051282051,0.004252307692307692,0.005345641025641025,0.004275384615384615,0.00503128205128205,0.00497128205128205,0.004913846153846153,0.004966666666666666,0.004885641025641025
1785785387.4609375,0.0042497435897435884,0.004252820512820513,0.004247692307692307,0.00425025641025641,0.004251794871794871,0.004251282051282051,0.004252307692307692,0.005354871794871794,0.004274871794871795,0.005023589743589743,0.0049630769230769225,0.004902564102564102,0.004962564102564102,0.00488051282051282
1785785387.46875,0.0042497435897435884,0.004252307692307692,0.004247692307692307,0.00425025641025641,0.004251794871794871,0.004251282051282051,0.004252307692307692,0.005351794871794871,0.004274871794871795,0.00503076923076923,0.00497128205128205,0.004913846153846153,0.004966666666666666,0.004887692307692307
1785785387.4765625,0.0042497435897435884,0.004252820512820513,0.004247692307692307,0.00425025641025641,0.004251794871794871,0.004251282051282051,0.004252307692307692,0.005355384615384615,0.00427076923076923,0.005025641025641025,0.004964102564102563,0.004911282051282051,0.004953333333333333,0.004876923076923076
1785785387.484375,0.0042497435897435884,0.004252820512820513,0.004247692307692307,0.00425025641025641,0.004251794871794871,0.004251282051282051,0.004252307692307692,0.00535025641025641,0.00427025641025641,0.005029743589743589,0.0049676923076923075,0.00491025641025641,0.004963589743589743,0.004874871794871794
1785785387.4921875,0.0042497435897435884,0.004252307692307692,0.004247692307692307,0.00425025641025641,0.004251794871794871,0.004251282051282051,0.004252307692307692,0.005356923076923076,0.004267179487179486,0.005022051282051281,0.004964615384615383,0.004906153846153846,0.004968205128205128,0.004871282051282051
1785785387.5,0.0042497435897435884,0.004252820512820513,0.004247692307692307,0.00425025641025641,0.004251794871794871,0.004251282051282051,0.004252307692307692,0.005353333333333333,0.004265128205128205,0.005026153846153845,0.004974871794871794,0.0049143589743589735,0.004969743589743589,0.004875384615384615
1785785387.5078125,0.0042497435897435884,0.004252307692307692,0.004247692307692307,0.00425025641025641,0.004251794871794871,0.004251282051282051,0.004252307692307692,0.005353333333333333,0.004264615384615384,0.005024102564102563,0.004975384615384615,0.004911282051282051,0.004963589743589743,0.004873846153846153
1785785387.515625,0.0042497435897435884,0.004252820512820513,0.004247692307692307,0.00425025641025641,0.004251794871794871,0.004251282051282051,0.004252307692307692,0.00535025641025641,0.004261538461538461,0.005022564102564102,0.004972820512820513,0.004909230769230768,0.004964615384615383,0.004873846153846153
1785785387.5234375,0.0042497435897435884,0.004252307692307692,0.004247692307692307,0.00425025641025641,0.004251794871794871,0.004251282051282051,0.004252307692307692,0.00535025641025641,0.00426051282051282,0.005022051282051281,0.004972307692307692,0.004911282051282051,0.004968205128205128,0.004877948717948718
1785785387.53125,0.0042497435897435884,0.004252820512820513,0.004247692307692307,0.00425025641025641,0.004251794871794871,0.004251282051282051,0.004252307692307692,0.005354871794871794,0.004267179487179486,0.005019487179487178,0.004975897435897435,0.0049143589743589735,0.004963589743589743,0.004884102564102564
1785785387.5390625,0.0042497435897435884,0.004252307692307692,0.004247692307692307,0.00425025641025641,0.004251794871794871,0.004251282051282051,0.004252307692307692,0.0053492307692307684,0.004269230769230768,0.005023589743589743,0.004974358974358974,0.004913846153846153,0.004963589743589743,0.004882564102564102
1785785387.546875,0.0042497435897435884,0.004252820512820513,0.004247692307692307,0.00425025641025641,0.004251794871794871,0.004251282051282051,0.004252307692307692,0.005354358974358974,0.00427025641025641,0.005019487179487178,0.004966666666666666,0.004907692307692307,0.004955384615384615,0.00488051282051282
1785785387.5546875,0.0042497435897435884,0.004252307692307692,0.004247692307692307,0.00425025641025641,0.004251794871794871,0.004251282051282051,0.004252307692307692,0.005351794871794871,0.004278461538461538,0.005026666666666666,0.0049784615384615375,0.004913846153846153,0.004966153846153846,0.004893846153846153
1785785387.5625,0.0042497435897435884,0.004252820512820513,0.004247692307692307,0.00425025641025641,0.004251794871794871,0.004251282051282051,0.004252307692307692,0.0053538461538461535,0.004281538461538461,0.005023589743589743,0.00497128205128205,0.004908205128205128,0.004958974358974359,0.004887692307692307
1785785387.5703125,0.0042497435897435884,0.004252307692307692,0.004247692307692307,0.00425025641025641,0.004251794871794871,0.004251282051282051,0.004252307692307692,0.005344102564102563,0.004276923076923076,0.005033333333333333,0.004972307692307692,0.004913846153846153,0.004969743589743589,0.004886666666666666
1785785387.578125,0.0042497435897435884,0.004252820512820513,0.004247692307692307,0.00425025641025641,0.004251794871794871,0.004251282051282051,0.004252307692307692,0.005354871794871794,0.004271794871794871,0.005028717948717948,0.004959487179487179,0.004907692307692307,0.0049610256410256405,0.004882051282051281
1785785387.5859375,0.0042497435897435884,0.004252307692307692,0.004247692307692307,0.00425025641025641,0.004251794871794871,0.004251282051282051,0.004252307692307692,0.005349743589743589,0.004275897435897435,0.0050358974358974355,0.004969230769230768,0.0049143589743589735,0.004964615384615383,0.004887179487179486
1785785387.59375,0.0042497435897435884,0.004252820512820513,0.004247692307692307,0.00425025641025641,0.004251794871794871,0.004251282051282051,0.004252307692307692,0.005355897435897435,0.004273846153846153,0.005026153846153845,0.004966666666666666,0.004908717948717948,0.0049543589743589736,0.004873333333333333
1785785387.6015625,0.0042497435897435884,0.004252820512820513,0.004247692307692307,0.00425025641025641,0.004251794871794871,0.004251282051282051,0.004252307692307692,0.005356410256410256,0.00427025641025641,0.00503025641025641,0.004968205128205128,0.0049123076923076915,0.004962564102564102,0.004871794871794871
1785785387.609375,0.0042497435897435884,0.004252307692307692,0.004247692307692307,0.00425025641025641,0.004251794871794871,0.004251282051282051,0.004252307692307692,0.005361538461538461,0.00427025641025641,0.0050271794871794865,0.00496051282051282,0.004909230769230768,0.004961538461538461,0.00487025641025641
1785785387.6171875,0.0042497435897435884,0.004252820512820513,0.004247692307692307,0.00425025641025641,0.004251794871794871,0.004251282051282051,0.004252307692307692,0.00535076923076923,0.004266666666666666,0.005028717948717948,0.004972820512820513,0.004913846153846153,0.004968717948717948,0.004876410256410255
1785785387.625,0.0042497435897435884,0.004252307692307692,0.004247692307692307,0.00425025641025641,0.004251794871794871,0.004251282051282051,0.004252307692307692,0.005352820512820512,0.004261538461538461,0.00502051282051282,0.004974358974358974,0.004909743589743588,0.004966666666666666,0.0048728205128205125
1785785387.6328125,0.0042497435897435884,0.004252820512820513,0.004247692307692307,0.00425025641025641,0.004251794871794871,0.004251282051282051,0.004252307692307692,0.00535025641025641,0.004262051282051281,0.0050246153846153834,0.004975384615384615,0.00491025641025641,0.004968717948717948,0.004874358974358973
1785785387.640625,0.0042497435897435884,0.004252307692307692,0.004247692307692307,0.00425025641025641,0.004251794871794871,0.004251282051282051,0.004252307692307692,0.00535025641025641,0.004262564102564102,0.005019487179487178,0.004972307692307692,0.004906666666666666,0.004966153846153846,0.004878461538461538
1785785387.6484375,0.0042497435897435884,0.004252820512820513,0.004247692307692307,0.00425025641025641,0.004251794871794871,0.004251282051282051,0.004252307692307692,0.005351794871794871,0.0042656410256410255,0.005014358974358974,0.004972820512820513,0.004906666666666666,0.00496051282051282,0.004885641025641025
1785785387.65625,0.0042497435897435884,0.004252307692307692,0.004247692307692307,0.00425025641025641,0.004251794871794871,0.004251282051282051,0.004252307692307692,0.005349743589743589,0.004268717948717948,0.005022564102564102,0.00497025641025641,0.004908717948717948,0.0049630769230769225,0.004887179487179486
1785785387.6640625,0.0042497435897435884,0.004252820512820513,0.004247692307692307,0.00425025641025641,0.004251794871794871,0.004251282051282051,0.004252307692307692,0.005354358974358974,0.004275897435897435,0.005023589743589743,0.004968205128205128,0.004906666666666666,0.004959487179487179,0.004885641025641025
1785785387.671875,0.0042497435897435884,0.004252307692307692,0.004247692307692307,0.00425025641025641,0.004251794871794871,0.004251282051282051,0.004252307692307692,0.00535025641025641,0.004281538461538461,0.005027692307692308,0.004973846153846153,0.004909743589743588,0.0049656410256410256,0.004888717948717948
1785785387.6796875,0.0042497435897435884,0.004252820512820513,0.004247692307692307,0.00425025641025641,0.004251794871794871,0.004251282051282051,0.004252307692307692,0.005355384615384615,0.004278461538461538,0.00502051282051282,0.00496,0.004902564102564102,0.004954871794871794,0.004877948717948718
1785785387.6875,0.0042497435897435884,0.004252307692307692,0.004247692307692307,0.00425025641025641,0.004251794871794871,0.004251282051282051,0.004252307692307692,0.00535128205128205,0.004273846153846153,0.0050292307692307685,0.0049656410256410256,0.004905128205128205,0.004965128205128204,0.004876923076923076
1785785387.6953125,0.0042497435897435884,0.004252820512820513,0.004247692307692307,0.00425025641025641,0.004251794871794871,0.004251282051282051,0.004252307692307692,0.005354358974358974,0.0042723076923076924,0.005024102564102563,0.004961538461538461,0.0049,0.004962051282051281,0.004872307692307691
1785785387.703125,0.0042497435897435884,0.004252307692307692,0.004247692307692307,0.00425025641025641,0.004251794871794871,0.004251282051282051,0.004252307692307692,0.005348205128205128,0.004274871794871795,0.00503025641025641,0.0049676923076923075,0.004909230769230768,0.004968205128205128,0.00488
1785785387.7109375,0.0042497435897435884,0.004252820512820513,0.004247692307692307,0.00425025641025641,0.004251794871794871,0.004251282051282051,0.004252307692307692,0.0053599999999999984,0.004271794871794871,0.005022051282051281,0.004961538461538461,0.004905641025641025,0.004958974358974359,0.004870769230769231
1785785387.71875,0.0042497435897435884,0.004252820512820513,0.004247692307692307,0.00425025641025641,0.004251794871794871,0.004251282051282051,0.004252307692307692,0.005355897435897435,0.0042697435897435885,0.005028717948717948,0.004974358974358974,0.00491076923076923,0.004972307692307692,0.004876923076923076
1785785387.7265625,0.0042497435897435884,0.004252307692307692,0.004247692307692307,0.00425025641025641,0.004251794871794871,0.004251282051282051,0.004252307692307692,0.005361538461538461,0.004266153846153846,0.00502051282051282,0.00497128205128205,0.004905128205128205,0.00497025641025641,0.004875384615384615
1785785387.734375,0.0042497435897435884,0.004252820512820513,0.004247692307692307,0.00425025641025641,0.004251794871794871,0.004251282051282051,0.004252307692307692,0.005355897435897435,0.004263589743589743,0.005023076923076923,0.0049764102564102556,0.0049123076923076915,0.004974871794871794,0.004874871794871794
1785785387.7421875,0.0042497435897435884,0.004252307692307692,0.004247692307692307,0.00425025641025641,0.004251794871794871,0.004251282051282051,0.004252307692307692,0.005357948717948717,0.004262564102564102,0.005018974358974358,0.00497128205128205,0.00491025641025641,0.004967179487179486,0.004873333333333333
1785785387.75,0.0042497435897435884,0.004252820512820513,0.004247692307692307,0.00425025641025641,0.004251794871794871,0.004251282051282051,0.004252307692307692,0.005353333333333333,0.004262051282051281,0.005021538461538461,0.00497128205128205,0.004908205128205128,0.004967179487179486,0.00488
1785785387.7578125,0.0042497435897435884,0.004252307692307692,0.004247692307692307,0.00425025641025641,0.004251794871794871,0.004251282051282051,0.004252307692307692,0.005356923076923076,0.0042610256410256404,0.005015384615384615,0.004966666666666666,0.004901538461538461,0.004963589743589743,0.004875384615384615
1785785387.765625,0.0042497435897435884,0.004252820512820513,0.004247692307692307,0.00425025641025641,0.004251794871794871,0.004251282051282051,0.004252307692307692,0.005355897435897435,0.004268205128205128,0.005018461538461538,0.0049717948717948705,0.004904615384615384,0.0049630769230769225,0.00488051282051282
1785785387.7734375,0.0042497435897435884,0.004252307692307692,0.004247692307692307,0.00425025641025641,0.004251794871794871,0.004251282051282051,0.004252307692307692,0.005349743589743589,0.0042697435897435885,0.005025128205128205,0.0049676923076923075,0.004904102564102563,0.004962051282051281,0.0048835897435897425
1785785387.78125,0.0042497435897435884,0.004252820512820513,0.004247692307692307,0.00425025641025641,0.004251794871794871,0.004251282051282051,0.004252307692307692,0.00535128205128205,0.004271794871794871,0.005022051282051281,0.004961538461538461,0.004903076923076922,0.004956923076923076,0.004882564102564102
1785785387.7890625,0.0042497435897435884,0.004252307692307692,0.004247692307692307,0.00425025641025641,0.004251794871794871,0.004251282051282051,0.004252307692307692,0.005349743589743589,0.0042764102564102555,0.005024102564102563,0.004972307692307692,0.004909743589743588,0.004967179487179486,0.004887692307692307
1785785387.796875,0.0042497435897435884,0.004252820512820513,0.004247692307692307,0.00425025641025641,0.004251794871794871,0.004251282051282051,0.004252307692307692,0.005354871794871794,0.004274871794871795,0.005022051282051281,0.004969743589743589,0.004908717948717948,0.004962564102564102,0.004887692307692307
1785785387.8046875,0.0042497435897435884,0.004252307692307692,0.004247692307692307,0.00425025641025641,0.004251794871794871,0.004251282051282051,0.004252307692307692,0.00535025641025641,0.004272820512820513,0.005033333333333333,0.004973333333333333,0.004913333333333333,0.004968205128205128,0.004887692307692307
1785785387.8125,0.0042497435897435884,0.004252820512820513,0.004247692307692307,0.00425025641025641,0.004251794871794871,0.004251282051282051,0.004252307692307692,0.005357435897435896,0.004271794871794871,0.005027692307692308,0.004962564102564102,0.004906666666666666,0.004954871794871794,0.004876923076923076
1785785387.8203125,0.0042497435897435884,0.004252307692307692,0.004247692307692307,0.00425025641025641,0.004251794871794871,0.004251282051282051,0.004252307692307692,0.00535025641025641,0.004271794871794871,0.00503025641025641,0.00497025641025641,0.004914871794871794,0.004965128205128204,0.0048835897435897425
1785785387.828125,0.0042497435897435884,0.004252820512820513,0.004247692307692307,0.00425025641025641,0.004251794871794871,0.004251282051282051,0.004252307692307692,0.005355384615384615,0.004271282051282051,0.005023076923076923,0.004967179487179486,0.004911282051282051,0.004959487179487179,0.004875897435897435
1785785387.8359375,0.0042497435897435884,0.004252820512820513,0.004247692307692307,0.00425025641025641,0.004251794871794871,0.004251282051282051,0.004252307692307692,0.005354871794871794,0.004272820512820513,0.00503025641025641,0.004973846153846153,0.0049143589743589735,0.0049676923076923075,0.004875897435897435
1785785387.84375,0.0042497435897435884,0.004252307692307692,0.004247692307692307,0.00425025641025641,0.004251794871794871,0.004251282051282051,0.004252307692307692,0.005361025641025641,0.0042656410256410255,0.005019487179487178,0.004965128205128204,0.004907692307692307,0.004962051282051281,0.00487025641025641
1785785387.8515625,0.0042497435897435884,0.004252820512820513,0.004247692307692307,0.00425025641025641,0.004251794871794871,0.004251282051282051,0.004252307692307692,0.005347692307692308,0.004257948717948718,0.005025641025641025,0.004975384615384615,0.004912820512820513,0.004973846153846153,0.004878461538461538
1785785387.859375,0.0042497435897435884,0.004252307692307692,0.004247692307692307,0.00425025641025641,0.004251794871794871,0.004251282051282051,0.004252307692307692,0.005352820512820512,0.0042589743589743585,0.005023076923076923,0.004974358974358974,0.00491025641025641,0.004968205128205128,0.004876410256410255
1785785387.8671875,0.0042497435897435884,0.004252820512820513,0.004247692307692307,0.00425025641025641,0.004251794871794871,0.004251282051282051,0.004252307692307692,0.005348717948717948,0.004264102564102563,0.0050271794871794865,0.00498,0.0049143589743589735,0.004966666666666666,0.00488
1785785387.875,0.0042497435897435884,0.004252307692307692,0.004247692307692307,0.00425025641025641,0.004251794871794871,0.004251282051282051,0.004252307692307692,0.005352307692307691,0.004262564102564102,0.005018974358974358,0.004972307692307692,0.004908205128205128,0.004958974358974359,0.004878974358974358
1785785387.8828125,0.0042497435897435884,0.004252820512820513,0.004247692307692307,0.00425025641025641,0.004251794871794871,0.004251282051282051,0.004252307692307692,0.005352307692307691,0.004266153846153846,0.005022051282051281,0.004975384615384615,0.00491025641025641,0.004957948717948717,0.004888205128205128
1785785387.890625,0.0042497435897435884,0.004252307692307692,0.004247692307692307,0.00425025641025641,0.004251794871794871,0.004251282051282051,0.004252307692307692,0.00535025641025641,0.0042723076923076924,0.005025641025641025,0.004973333333333333,0.004908205128205128,0.004957435897435896,0.004889230769230768
1785785387.8984375,0.0042497435897435884,0.004252820512820513,0.004247692307692307,0.00425025641025641,0.004251794871794871,0.004251282051282051,0.004252307692307692,0.00535025641025641,0.0042764102564102555,0.0050246153846153834,0.0049676923076923075,0.004906666666666666,0.004957948717948717,0.004888717948717948
1785785387.90625,0.0042497435897435884,0.004252307692307692,0.004247692307692307,0.00425025641025641,0.004251794871794871,0.004251282051282051,0.004252307692307692,0.00535128205128205,0.004276923076923076,0.005026153846153845,0.0049676923076923075,0.004908205128205128,0.004966666666666666,0.004889230769230768
1785785387.9140625,0.0042497435897435884,0.004252820512820513,0.004247692307692307,0.00425025641025641,0.004251794871794871,0.004251282051282051,0.004252307692307692,0.005355897435897435,0.0042764102564102555,0.005023589743589743,0.0049676923076923075,0.004907179487179486,0.004962051282051281,0.004883076923076922
1785785387.921875,0.0042497435897435884,0.004252307692307692,0.004247692307692307,0.00425025641025641,0.004251794871794871,0.004251282051282051,0.004252307692307692,0.005348717948717948,0.004273846153846153,0.00503128205128205,0.004974358974358974,0.0049123076923076915,0.004967179487179486,0.004883076923076922
1785785387.9296875,0.0042497435897435884,0.004252820512820513,0.004247692307692307,0.00425025641025641,0.004251794871794871,0.004251282051282051,0.004252307692307692,0.005354358974358974,0.0042723076923076924,0.005026666666666666,0.004962051282051281,0.004908717948717948,0.00496,0.004875384615384615
1785785387.9375,0.0042497435897435884,0.004252307692307692,0.004247692307692307,0.00425025641025641,0.004251794871794871,0.004251282051282051,0.004252307692307692,0.005348717948717948,0.004271282051282051,0.005032820512820512,0.004969743589743589,0.004913333333333333,0.00497128205128205,0.004878461538461538
1785785387.9453125,0.0042497435897435884,0.004252820512820513,0.004247692307692307,0.00425025641025641,0.004251794871794871,0.004251282051282051,0.004252307692307692,0.005354358974358974,0.004266666666666666,0.005022564102564102,0.004969743589743589,0.004907692307692307,0.004961538461538461,0.0048728205128205125
1785785387.953125,0.0042497435897435884,0.004252820512820513,0.004247692307692307,0.00425025641025641,0.004251794871794871,0.004251282051282051,0.004252307692307692,0.005352820512820512,0.004266666666666666,0.005025641025641025,0.004976923076923076,0.004915897435897435,0.004968717948717948,0.004879487179487179
1785785387.9609375,0.0042497435897435884,0.004252307692307692,0.004247692307692307,0.00425025641025641,0.004251794871794871,0.004251282051282051,0.004252307692307692,0.005358461538461538,0.004266153846153846,0.005018461538461538,0.004968205128205128,0.00491025641025641,0.004966666666666666,0.004873333333333333
1785785387.96875,0.0042497435897435884,0.004252820512820513,0.004247692307692307,0.00425025641025641,0.004251794871794871,0.004251282051282051,0.004252307692307692,0.0053451282051282046,0.004261538461538461,0.005026666666666666,0.004975384615384615,0.0049123076923076915,0.004975897435897435,0.004879487179487179
1785785387.9765625,0.0042497435897435884,0.004252307692307692,0.004247692307692307,0.00425025641025641,0.004251794871794871,0.004251282051282051,0.004252307692307692,0.005352307692307691,0.0042589743589743585,0.005019487179487178,0.0049717948717948705,0.004908717948717948,0.004961538461538461,0.004877948717948718
1785785387.984375,0.0042497435897435884,0.004252820512820513,0.004247692307692307,0.00425025641025641,0.004251794871794871,0.004251282051282051,0.004252307692307692,0.00535025641025641,0.004263076923076922,0.005027692307692308,0.0049784615384615375,0.004917948717948718,0.004964615384615383,0.004879487179487179
1785785387.9921875,0.0042497435897435884,0.004252307692307692,0.004247692307692307,0.00425025641025641,0.004251794871794871,0.004251282051282051,0.004252307692307692,0.005351794871794871,0.004262564102564102,0.005024102564102563,0.00497076923076923,0.00491076923076923,0.0049610256410256405,0.004876410256410255
1785785388.0,0.0042497435897435884,0.004252820512820513,0.004247692307692307,0.00425025641025641,0.004251794871794871,0.004251282051282051,0.004252307692307692,0.0053492307692307684,0.004267692307692307,0.005025128205128205,0.004977948717948717,0.004909230769230768,0.004961538461538461,0.004890769230769231
1785785388.0078125,0.0042497435897435884,0.004252307692307692,0.004247692307692307,0.00425025641025641,0.004251794871794871,0.004251282051282051,0.004252307692307692,0.00535128205128205,0.00427076923076923,0.005023589743589743,0.004975384615384615,0.004906666666666666,0.00496051282051282,0.0048902564102564095
1785785388.015625,0.0042497435897435884,0.004252820512820513,0.004247692307692307,0.00425025641025641,0.004251794871794871,0.004251282051282051,0.004252307692307692,0.00535025641025641,0.004273846153846153,0.005024102564102563,0.0049717948717948705,0.004909743589743588,0.004964615384615383,0.004885641025641025
1785785388.0234375,0.0042497435897435884,0.004252307692307692,0.004247692307692307,0.00425025641025641,0.004251794871794871,0.004251282051282051,0.004252307692307692,0.00535076923076923,0.004275897435897435,0.005028205128205128,0.00497128205128205,0.004911282051282051,0.004969230769230768,0.004886666666666666
1785785388.03125,0.0042497435897435884,0.004252820512820513,0.004247692307692307,0.00425025641025641,0.004251794871794871,0.004251282051282051,0.004252307692307692,0.005354358974358974,0.0042764102564102555,0.005028717948717948,0.0049676923076923075,0.00491025641025641,0.004962564102564102,0.004887179487179486
1785785388.0390625,0.0042497435897435884,0.004252307692307692,0.004247692307692307,0.00425025641025641,0.004251794871794871,0.004251282051282051,0.004252307692307692,0.005349743589743589,0.004275384615384615,0.005031794871794871,0.00497025641025641,0.004913333333333333,0.004963589743589743,0.004885641025641025
1785785388.046875,0.0042497435897435884,0.004252820512820513,0.004247692307692307,0.00425025641025641,0.004251794871794871,0.004251282051282051,0.004252307692307692,0.005356410256410256,0.00427025641025641,0.0050246153846153834,0.00496051282051282,0.004907179487179486,0.004952820512820513,0.004874871794871794
1785785388.0546875,0.0042497435897435884,0.004252307692307692,0.004247692307692307,0.00425025641025641,0.004251794871794871,0.004251282051282051,0.004252307692307692,0.005354358974358974,0.0042743589743589735,0.005028717948717948,0.0049656410256410256,0.004911282051282051,0.004964615384615383,0.004876410256410255
1785785388.0625,0.0042497435897435884,0.004252820512820513,0.004247692307692307,0.00425025641025641,0.004251794871794871,0.004251282051282051,0.004252307692307692,0.005357948717948717,0.004278461538461538,0.0050246153846153834,0.004962564102564102,0.004909743589743588,0.00496051282051282,0.004869743589743588
1785785388.0703125,0.0042497435897435884,0.004252820512820513,0.004247692307692307,0.00425025641025641,0.004251794871794871,0.004251282051282051,0.004252307692307692,0.005348205128205128,0.0042723076923076924,0.005032307692307691,0.004973846153846153,0.004918461538461538,0.004968205128205128,0.004875384615384615
1785785388.078125,0.0042497435897435884,0.004252307692307692,0.004247692307692307,0.00425025641025641,0.004251794871794871,0.004251282051282051,0.004252307692307692,0.005354871794871794,0.004262564102564102,0.005022564102564102,0.004968205128205128,0.004911282051282051,0.004962051282051281,0.004871794871794871
1785785388.0859375,0.0042497435897435884,0.004252820512820513,0.004247692307692307,0.00425025641025641,0.004251794871794871,0.004251282051282051,0.004252307692307692,0.005348717948717948,0.00426,0.005026153846153845,0.004977948717948717,0.004913846153846153,0.004972307692307692,0.004877435897435897
1785785388.09375,0.0042497435897435884,0.004252307692307692,0.004247692307692307,0.00425025641025641,0.004251794871794871,0.004251282051282051,0.004252307692307692,0.005354358974358974,0.004259487179487179,0.005019487179487178,0.004973333333333333,0.00491076923076923,0.00496051282051282,0.004877948717948718
1785785388.1015625,0.0042497435897435884,0.004252820512820513,0.004247692307692307,0.00425025641025641,0.004251794871794871,0.004251282051282051,0.004252307692307692,0.005348205128205128,0.0042610256410256404,0.005026666666666666,0.0049764102564102556,0.004916410256410255,0.004964102564102563,0.004887179487179486
1785785388.109375,0.0042497435897435884,0.004252307692307692,0.004247692307692307,0.00425025641025641,0.004251794871794871,0.004251282051282051,0.004252307692307692,0.005355897435897435,0.0042656410256410255,0.00502,0.004967179487179486,0.004906666666666666,0.004957948717948717,0.004882051282051281
1785785388.1171875,0.0042497435897435884,0.004252820512820513,0.004247692307692307,0.00425025641025641,0.004251794871794871,0.004251282051282051,0.004252307692307692,0.005351794871794871,0.004275384615384615,0.005027692307692308,0.004976923076923076,0.0049123076923076915,0.00496051282051282,0.0048902564102564095
1785785388.125,0.0042497435897435884,0.004252307692307692,0.004247692307692307,0.00425025641025641,0.004251794871794871,0.004251282051282051,0.004252307692307692,0.00535128205128205,0.004275384615384615,0.0050271794871794865,0.00497128205128205,0.004911282051282051,0.0049584615384615375,0.004889743589743588
1785785388.1328125,0.0042497435897435884,0.004252820512820513,0.004247692307692307,0.00425025641025641,0.004251794871794871,0.004251282051282051,0.004252307692307692,0.005349743589743589,0.004276923076923076,0.005027692307692308,0.004966666666666666,0.00491025641025641,0.004958974358974359,0.004886666666666666
1785785388.140625,0.0042497435897435884,0.004252307692307692,0.004247692307692307,0.00425025641025641,0.004251794871794871,0.004251282051282051,0.004252307692307692,0.00535025641025641,0.0042789743589743585,0.005029743589743589,0.0049676923076923075,0.00491025641025641,0.004962564102564102,0.0048835897435897425
1785785388.1484375,0.0042497435897435884,0.004252820512820513,0.004247692307692307,0.00425025641025641,0.004251794871794871,0.004251282051282051,0.004252307692307692,0.005354358974358974,0.004278461538461538,0.0050292307692307685,0.004966153846153846,0.004908717948717948,0.00496,0.004885128205128205
1785785388.15625,0.0042497435897435884,0.004252307692307692,0.004247692307692307,0.00425025641025641,0.004251794871794871,0.004251282051282051,0.004252307692307692,0.005352820512820512,0.0042743589743589735,0.005031794871794871,0.004966666666666666,0.004908717948717948,0.004962051282051281,0.004882564102564102
1785785388.1640625,0.0042497435897435884,0.004252820512820513,0.004247692307692307,0.00425025641025641,0.004251794871794871,0.004251282051282051,0.004252307692307692,0.005355384615384615,0.0042723076923076924,0.005027692307692308,0.004962564102564102,0.004908205128205128,0.0049564102564102555,0.004873846153846153
1785785388.171875,0.0042497435897435884,0.004252307692307692,0.004247692307692307,0.00425025641025641,0.004251794871794871,0.004251282051282051,0.004252307692307692,0.005352307692307691,0.00427025641025641,0.0050292307692307685,0.004968717948717948,0.004913846153846153,0.0049676923076923075,0.004876923076923076
1785785388.1796875,0.0042497435897435884,0.004252820512820513,0.004247692307692307,0.00425025641025641,0.004251794871794871,0.004251282051282051,0.004252307692307692,0.005356923076923076,0.004264615384615384,0.005021538461538461,0.004966666666666666,0.004909743589743588,0.004963589743589743,0.004872307692307691
1785785388.1875,0.0042497435897435884,0.004252820512820513,0.004247692307692307,0.00425025641025641,0.004251794871794871,0.004251282051282051,0.004252307692307692,0.00535025641025641,0.004263589743589743,0.005027692307692308,0.00498,0.004918461538461538,0.00497128205128205,0.00488051282051282
1785785388.1953125,0.0042497435897435884,0.004252307692307692,0.004247692307692307,0.00425025641025641,0.004251794871794871,0.004251282051282051,0.004252307692307692,0.0053538461538461535,0.004264615384615384,0.00502051282051282,0.004973333333333333,0.004915897435897435,0.004961538461538461,0.004876923076923076
1785785388.203125,0.0042497435897435884,0.004252820512820513,0.004247692307692307,0.00425025641025641,0.004251794871794871,0.004251282051282051,0.004252307692307692,0.005344102564102563,0.004264102564102563,0.005026153846153845,0.004975897435897435,0.004916410256410255,0.004968205128205128,0.004877948717948718
1785785388.2109375,0.0042497435897435884,0.004252307692307692,0.004247692307692307,0.00425025641025641,0.004251794871794871,0.004251282051282051,0.004252307692307692,0.005355897435897435,0.004264102564102563,0.005017435897435896,0.00497128205128205,0.004908205128205128,0.004957435897435896,0.004878461538461538
1785785388.21875,0.0042497435897435884,0.004252820512820513,0.004247692307692307,0.00425025641025641,0.004251794871794871,0.004251282051282051,0.004252307692307692,0.00535128205128205,0.004268205128205128,0.005026666666666666,0.004978974358974359,0.004917435897435896,0.004963589743589743,0.0048902564102564095
1785785388.2265625,0.0042497435897435884,0.004252307692307692,0.004247692307692307,0.00425025641025641,0.004251794871794871,0.004251282051282051,0.004252307692307692,0.005352307692307691,0.004267692307692307,0.005021025641025641,0.004968205128205128,0.004909743589743588,0.004955384615384615,0.004882564102564102
1785785388.234375,0.0042497435897435884,0.004252820512820513,0.004247692307692307,0.00425025641025641,0.004251794871794871,0.004251282051282051,0.004252307692307692,0.0053492307692307684,0.004272820512820513,0.0050246153846153834,0.00497025641025641,0.004906666666666666,0.004961538461538461,0.004885641025641025
1785785388.2421875,0.0042497435897435884,0.004252307692307692,0.004247692307692307,0.00425025641025641,0.004251794871794871,0.004251282051282051,0.004252307692307692,0.005355897435897435,0.004277948717948718,0.00502051282051282,0.004961538461538461,0.004901538461538461,0.004959487179487179,0.0048835897435897425
1785785388.25,0.0042497435897435884,0.004252820512820513,0.004247692307692307,0.00425025641025641,0.004251794871794871,0.004251282051282051,0.004252307692307692,0.0053492307692307684,0.004279487179487179,0.005024102564102563,0.00497076923076923,0.004911282051282051,0.0049676923076923075,0.004889230769230768
1785785388.2578125,0.0042497435897435884,0.004252307692307692,0.004247692307692307,0.00425025641025641,0.004251794871794871,0.004251282051282051,0.004252307692307692,0.00535076923076923,0.004274871794871795,0.005024102564102563,0.004969743589743589,0.004909743589743588,0.0049676923076923075,0.004885641025641025
1785785388.265625,0.0042497435897435884,0.004252820512820513,0.004247692307692307,0.00425025641025641,0.004251794871794871,0.004251282051282051,0.004252307692307692,0.0053538461538461535,0.004274871794871795,0.005025641025641025,0.0049584615384615375,0.004905641025641025,0.004956923076923076,0.0048835897435897425
1785785388.2734375,0.0042497435897435884,0.004252307692307692,0.004247692307692307,0.00425025641025641,0.004251794871794871,0.004251282051282051,0.004252307692307692,0.005351794871794871,0.004277948717948718,0.005031794871794871,0.004964102564102563,0.004907692307692307,0.0049564102564102555,0.0048835897435897425
1785785388.28125,0.0042497435897435884,0.004252820512820513,0.004247692307692307,0.00425025641025641,0.004251794871794871,0.004251282051282051,0.004252307692307692,0.005354358974358974,0.004274871794871795,0.00503076923076923,0.00497128205128205,0.004908717948717948,0.004956923076923076,0.004877435897435897
1785785388.2890625,0.0042497435897435884,0.004252307692307692,0.004247692307692307,0.00425025641025641,0.004251794871794871,0.004251282051282051,0.004252307692307692,0.005351794871794871,0.00427025641025641,0.005032307692307691,0.004968205128205128,0.0049143589743589735,0.004968205128205128,0.004875384615384615
1785785388.296875,0.0042497435897435884,0.004252820512820513,0.004247692307692307,0.00425025641025641,0.004251794871794871,0.004251282051282051,0.004252307692307692,0.005355384615384615,0.004267692307692307,0.005023589743589743,0.0049630769230769225,0.0049123076923076915,0.004962051282051281,0.004872307692307691
1785785388.3046875,0.0042497435897435884,0.004252820512820513,0.004247692307692307,0.00425025641025641,0.004251794871794871,0.004251282051282051,0.004252307692307692,0.005348717948717948,0.004266666666666666,0.005028717948717948,0.00498,0.004917435897435896,0.004969230769230768,0.004878974358974358
1785785388.3125,0.0042497435897435884,0.004252307692307692,0.004247692307692307,0.00425025641025641,0.004251794871794871,0.004251282051282051,0.004252307692307692,0.005354358974358974,0.004263076923076922,0.00502051282051282,0.004973846153846153,0.004911794871794871,0.004962564102564102,0.004874358974358973
1785785388.3203125,0.0042497435897435884,0.004252820512820513,0.004247692307692307,0.00425025641025641,0.004251794871794871,0.004251282051282051,0.004252307692307692,0.005348717948717948,0.004258461538461538,0.005022051282051281,0.004974358974358974,0.004914871794871794,0.004973333333333333,0.004878461538461538
1785785388.328125,0.0042497435897435884,0.004252307692307692,0.004247692307692307,0.00425025641025641,0.004251794871794871,0.004251282051282051,0.004252307692307692,0.005355384615384615,0.0042589743589743585,0.005012307692307691,0.00497076923076923,0.00491025641025641,0.004958974358974359,0.004877435897435897
1785785388.3359375,0.0042497435897435884,0.004252820512820513,0.004247692307692307,0.00425025641025641,0.004251794871794871,0.004251282051282051,0.004252307692307692,0.005346153846153845,0.0042656410256410255,0.005024102564102563,0.00498051282051282,0.004917948717948718,0.00496051282051282,0.004889743589743588
1785785388.34375,0.0042497435897435884,0.004252307692307692,0.004247692307692307,0.00425025641025641,0.004251794871794871,0.004251282051282051,0.004252307692307692,0.005356410256410256,0.004271282051282051,0.005018974358974358,0.0049676923076923075,0.004908205128205128,0.004952307692307692,0.004886153846153846
1785785388.3515625,0.0042497435897435884,0.004252820512820513,0.004247692307692307,0.00425025641025641,0.004251794871794871,0.004251282051282051,0.004252307692307692,0.0053538461538461535,0.00428051282051282,0.005025128205128205,0.004974358974358974,0.004911794871794871,0.004962051282051281,0.0048923076923076915
1785785388.359375,0.0042497435897435884,0.004252307692307692,0.004247692307692307,0.00425025641025641,0.004251794871794871,0.004251282051282051,0.004252307692307692,0.0053538461538461535,0.0042789743589743585,0.005022564102564102,0.004968205128205128,0.004906666666666666,0.004958974358974359,0.004887692307692307
1785785388.3671875,0.0042497435897435884,0.004252820512820513,0.004247692307692307,0.00425025641025641,0.004251794871794871,0.004251282051282051,0.004252307692307692,0.005349743589743589,0.0042743589743589735,0.005025641025641025,0.0049676923076923075,0.004909743589743588,0.004962564102564102,0.004889230769230768
1785785388.375,0.0042497435897435884,0.004252307692307692,0.004247692307692307,0.00425025641025641,0.004251794871794871,0.004251282051282051,0.004252307692307692,0.005355384615384615,0.004275384615384615,0.005024102564102563,0.0049630769230769225,0.004907692307692307,0.004957948717948717,0.004884615384615384
1785785388.3828125,0.0042497435897435884,0.004252820512820513,0.004247692307692307,0.00425025641025641,0.004251794871794871,0.004251282051282051,0.004252307692307692,0.005354358974358974,0.004278461538461538,0.005031794871794871,0.004965128205128204,0.004909743589743588,0.004957435897435896,0.0048835897435897425
1785785388.390625,0.0042497435897435884,0.004252307692307692,0.004247692307692307,0.00425025641025641,0.004251794871794871,0.004251282051282051,0.004252307692307692,0.005351794871794871,0.004273333333333333,0.00503128205128205,0.004966666666666666,0.00491025641025641,0.004959487179487179,0.004879487179487179
1785785388.3984375,0.0042497435897435884,0.004252820512820513,0.004247692307692307,0.00425025641025641,0.004251794871794871,0.004251282051282051,0.004252307692307692,0.0053538461538461535,0.004268717948717948,0.005023589743589743,0.0049656410256410256,0.004908717948717948,0.004959487179487179,0.004874358974358973
1785785388.40625,0.0042497435897435884,0.004252307692307692,0.004247692307692307,0.00425025641025641,0.004251794871794871,0.004251282051282051,0.004252307692307692,0.005352307692307691,0.004268205128205128,0.0050246153846153834,0.004968717948717948,0.00491076923076923,0.004969743589743589,0.004875384615384615
1785785388.4140625,0.0042497435897435884,0.004252820512820513,0.004247692307692307,0.00425025641025641,0.004251794871794871,0.004251282051282051,0.004252307692307692,0.00535128205128205,0.004262564102564102,0.005023589743589743,0.004967179487179486,0.00491025641025641,0.004964615384615383,0.004873333333333333
1785785388.421875,0.0042497435897435884,0.004252820512820513,0.004247692307692307,0.00425025641025641,0.004251794871794871,0.004251282051282051,0.004252307692307692,0.0053451282051282046,0.00426,0.005026153846153845,0.004975897435897435,0.004917435897435896,0.004967179487179486,0.004877948717948718
1785785388.4296875,0.0042497435897435884,0.004252307692307692,0.004247692307692307,0.00425025641025641,0.004251794871794871,0.004251282051282051,0.004252307692307692,0.005354358974358974,0.00426051282051282,0.005018461538461538,0.00497076923076923,0.004913333333333333,0.004956923076923076,0.004874358974358973
1785785388.4375,0.0042497435897435884,0.004252820512820513,0.004247692307692307,0.00425025641025641,0.004251794871794871,0.004251282051282051,0.004252307692307692,0.005349743589743589,0.00426051282051282,0.0050271794871794865,0.004975897435897435,0.004916410256410255,0.004966666666666666,0.004881538461538461
1785785388.4453125,0.0042497435897435884,0.004252307692307692,0.004247692307692307,0.00425025641025641,0.004251794871794871,0.004251282051282051,0.004252307692307692,0.005357435897435896,0.004262564102564102,0.005017435897435896,0.00497128205128205,0.004909743589743588,0.004955897435897435,0.004882564102564102
1785785388.453125,0.0042497435897435884,0.004252820512820513,0.004247692307692307,0.00425025641025641,0.004251794871794871,0.004251282051282051,0.004252307692307692,0.005347692307692308,0.004267692307692307,0.005022564102564102,0.0049784615384615375,0.004915384615384615,0.0049610256410256405,0.004887179487179486
1785785388.4609375,0.0042497435897435884,0.004252307692307692,0.004247692307692307,0.00425025641025641,0.004251794871794871,0.004251282051282051,0.004252307692307692,0.005354358974358974,0.00427025641025641,0.005015897435897435,0.004964102564102563,0.004907692307692307,0.0049497435897435885,0.004879487179487179
1785785388.46875,0.0042497435897435884,0.004252820512820513,0.004247692307692307,0.00425025641025641,0.004251794871794871,0.004251282051282051,0.004252307692307692,0.00535025641025641,0.004276923076923076,0.005025641025641025,0.0049717948717948705,0.004911794871794871,0.004959487179487179,0.0048923076923076915
1785785388.4765625,0.0042497435897435884,0.004252307692307692,0.004247692307692307,0.00425025641025641,0.004251794871794871,0.004251282051282051,0.004252307692307692,0.005353333333333333,0.004277435897435897,0.005021538461538461,0.004966153846153846,0.004906666666666666,0.004956923076923076,0.004887179487179486
1785785388.484375,0.0042497435897435884,0.004252820512820513,0.004247692307692307,0.00425025641025641,0.004251794871794871,0.004251282051282051,0.004252307692307692,0.005346666666666666,0.0042764102564102555,0.005026666666666666,0.004969743589743589,0.004911794871794871,0.00496051282051282,0.004884615384615384
1785785388.4921875,0.0042497435897435884,0.004252307692307692,0.004247692307692307,0.00425025641025641,0.004251794871794871,0.004251282051282051,0.004252307692307692,0.00535025641025641,0.004274871794871795,0.005025641025641025,0.0049630769230769225,0.004906153846153846,0.0049564102564102555,0.004878461538461538
1785785388.5,0.0042497435897435884,0.004252820512820513,0.004247692307692307,0.00425025641025641,0.004251794871794871,0.004251282051282051,0.004252307692307692,0.005349743589743589,0.0042743589743589735,0.00503128205128205,0.004966153846153846,0.004908717948717948,0.004958974358974359,0.00488102564102564
1785785388.5078125,0.0042497435897435884,0.004252307692307692,0.004247692307692307,0.00425025641025641,0.004251794871794871,0.004251282051282051,0.004252307692307692,0.00535076923076923,0.004271282051282051,0.00503128205128205,0.004969743589743589,0.00491076923076923,0.00496051282051282,0.004879487179487179
1785785388.515625,0.0042497435897435884,0.004252820512820513,0.004247692307692307,0.00425025641025641,0.004251794871794871,0.004251282051282051,0.004252307692307692,0.005351794871794871,0.0042697435897435885,0.005028205128205128,0.004969743589743589,0.004911282051282051,0.004961538461538461,0.004876410256410255
1785785388.5234375,0.0042497435897435884,0.004252307692307692,0.004247692307692307,0.00425025641025641,0.004251794871794871,0.004251282051282051,0.004252307692307692,0.005354358974358974,0.004268717948717948,0.0050246153846153834,0.0049656410256410256,0.004911794871794871,0.004968205128205128,0.004873333333333333
1785785388.53125,0.0042497435897435884,0.004252820512820513,0.004247692307692307,0.00425025641025641,0.004251794871794871,0.004251282051282051,0.004252307692307692,0.005356923076923076,0.004261538461538461,0.00502,0.004964102564102563,0.004909743589743588,0.004964102564102563,0.004868717948717948
1785785388.5390625,0.0042497435897435884,0.004252820512820513,0.004247692307692307,0.00425025641025641,0.004251794871794871,0.004251282051282051,0.004252307692307692,0.00535128205128205,0.004257948717948718,0.005023589743589743,0.004976923076923076,0.0049123076923076915,0.004966666666666666,0.004875384615384615
1785785388.546875,0.0042497435897435884,0.004252307692307692,0.004247692307692307,0.00425025641025641,0.004251794871794871,0.004251282051282051,0.004252307692307692,0.005354358974358974,0.004263589743589743,0.005018974358974358,0.004977948717948717,0.0049123076923076915,0.0049630769230769225,0.004876410256410255
1785785388.5546875,0.0042497435897435884,0.004252820512820513,0.004247692307692307,0.00425025641025641,0.004251794871794871,0.004251282051282051,0.004252307692307692,0.0053471794871794865,0.004263589743589743,0.0050271794871794865,0.004976923076923076,0.004916410256410255,0.004973333333333333,0.004878461538461538
1785785388.5625,0.0042497435897435884,0.004252307692307692,0.004247692307692307,0.00425025641025641,0.004251794871794871,0.004251282051282051,0.004252307692307692,0.005354871794871794,0.004262564102564102,0.005018461538461538,0.004967179487179486,0.004909743589743588,0.004956923076923076,0.004879487179487179
1785785388.5703125,0.0042497435897435884,0.004252820512820513,0.004247692307692307,0.00425025641025641,0.004251794871794871,0.004251282051282051,0.004252307692307692,0.00535128205128205,0.004271282051282051,0.005025641025641025,0.004982051282051281,0.004915384615384615,0.00496051282051282,0.004892820512820513
1785785388.578125,0.0042497435897435884,0.004252307692307692,0.004247692307692307,0.00425025641025641,0.004251794871794871,0.004251282051282051,0.004252307692307692,0.005357435897435896,0.004276923076923076,0.00502051282051282,0.0049717948717948705,0.004909230769230768,0.004952307692307692,0.004884615384615384
1785785388.5859375,0.0042497435897435884,0.004252820512820513,0.004247692307692307,0.00425025641025641,0.004251794871794871,0.004251282051282051,0.004252307692307692,0.0053471794871794865,0.004278461538461538,0.005032307692307691,0.004972307692307692,0.004913333333333333,0.004961538461538461,0.004887179487179486
1785785388.59375,0.0042497435897435884,0.004252307692307692,0.004247692307692307,0.00425025641025641,0.004251794871794871,0.004251282051282051,0.004252307692307692,0.005355384615384615,0.004276923076923076,0.005027692307692308,0.004961538461538461,0.004902564102564102,0.0049543589743589736,0.004881538461538461
1785785388.6015625,0.0042497435897435884,0.004252820512820513,0.004247692307692307,0.00425025641025641,0.004251794871794871,0.004251282051282051,0.004252307692307692,0.0053538461538461535,0.0042764102564102555,0.00503076923076923,0.0049676923076923075,0.004908717948717948,0.004962564102564102,0.004884615384615384
1785785388.609375,0.0042497435897435884,0.004252307692307692,0.004247692307692307,0.00425025641025641,0.004251794871794871,0.004251282051282051,0.004252307692307692,0.005356410256410256,0.004273846153846153,0.005026153846153845,0.0049610256410256405,0.004908717948717948,0.0049564102564102555,0.004877948717948718
1785785388.6171875,0.0042497435897435884,0.004252820512820513,0.004247692307692307,0.00425025641025641,0.004251794871794871,0.004251282051282051,0.004252307692307692,0.00535128205128205,0.0042764102564102555,0.005029743589743589,0.004964102564102563,0.0049123076923076915,0.0049584615384615375,0.004878461538461538
1785785388.625,0.0042497435897435884,0.004252307692307692,0.004247692307692307,0.00425025641025641,0.004251794871794871,0.004251282051282051,0.004252307692307692,0.005353333333333333,0.0042743589743589735,0.005025641025641025,0.004965128205128204,0.004907692307692307,0.004962051282051281,0.004872307692307691
1785785388.6328125,0.0042497435897435884,0.004252820512820513,0.004247692307692307,0.00425025641025641,0.004251794871794871,0.004251282051282051,0.004252307692307692,0.00535076923076923,0.004268205128205128,0.005028205128205128,0.004969743589743589,0.00491076923076923,0.004966666666666666,0.0048728205128205125
1785785388.640625,0.0042497435897435884,0.004252307692307692,0.004247692307692307,0.00425025641025641,0.004251794871794871,0.004251282051282051,0.004252307692307692,0.00535128205128205,0.004263589743589743,0.005029743589743589,0.00497025641025641,0.004912820512820513,0.004966666666666666,0.004874358974358973
1785785388.6484375,0.0042497435897435884,0.004252820512820513,0.004247692307692307,0.00425025641025641,0.004251794871794871,0.004251282051282051,0.004252307692307692,0.005352307692307691,0.004261538461538461,0.005025128205128205,0.004969743589743589,0.004911794871794871,0.004962051282051281,0.004871282051282051
1785785388.65625,0.0042497435897435884,0.004252820512820513,0.004247692307692307,0.00425025641025641,0.004251794871794871,0.004251282051282051,0.004252307692307692,0.005348717948717948,0.00426,0.005024102564102563,0.0049764102564102556,0.004913333333333333,0.00497128205128205,0.004874871794871794
1785785388.6640625,0.0042497435897435884,0.004252307692307692,0.004247692307692307,0.00425025641025641,0.004251794871794871,0.004251282051282051,0.004252307692307692,0.005354358974358974,0.004263076923076922,0.00502,0.004973846153846153,0.00491025641025641,0.004963589743589743,0.004876923076923076
1785785388.671875,0.0042497435897435884,0.004252820512820513,0.004247692307692307,0.00425025641025641,0.004251794871794871,0.004251282051282051,0.004252307692307692,0.00535128205128205,0.0042656410256410255,0.005024102564102563,0.004974358974358974,0.004913333333333333,0.00496,0.00488
1785785388.6796875,0.0042497435897435884,0.004252307692307692,0.004247692307692307,0.00425025641025641,0.004251794871794871,0.004251282051282051,0.004252307692307692,0.005356410256410256,0.004266153846153846,0.005015384615384615,0.004969230769230768,0.004908717948717948,0.00495025641025641,0.004882051282051281
1785785388.6875,0.0042497435897435884,0.004252820512820513,0.004247692307692307,0.00425025641025641,0.004251794871794871,0.004251282051282051,0.004252307692307692,0.0053492307692307684,0.004271794871794871,0.0050246153846153834,0.004972307692307692,0.004911282051282051,0.004962051282051281,0.004891282051282051
1785785388.6953125,0.0042497435897435884,0.004252307692307692,0.004247692307692307,0.00425025641025641,0.004251794871794871,0.004251282051282051,0.004252307692307692,0.005358461538461538,0.004277435897435897,0.005016923076923076,0.00496,0.004902564102564102,0.004953846153846153,0.004882051282051281
1785785388.703125,0.0042497435897435884,0.004252820512820513,0.004247692307692307,0.00425025641025641,0.004251794871794871,0.004251282051282051,0.004252307692307692,0.00535076923076923,0.00428051282051282,0.005023589743589743,0.00497128205128205,0.00491025641025641,0.004968205128205128,0.004885641025641025
1785785388.7109375,0.0042497435897435884,0.004252307692307692,0.004247692307692307,0.00425025641025641,0.004251794871794871,0.004251282051282051,0.004252307692307692,0.005354358974358974,0.004274871794871795,0.00502051282051282,0.004962051282051281,0.004905128205128205,0.00496051282051282,0.00488102564102564
1785785388.71875,0.0042497435897435884,0.004252820512820513,0.004247692307692307,0.00425025641025641,0.004251794871794871,0.004251282051282051,0.004252307692307692,0.00535025641025641,0.004271282051282051,0.005028205128205128,0.004966666666666666,0.00491025641025641,0.0049630769230769225,0.004887179487179486
1785785388.7265625,0.0042497435897435884,0.004252307692307692,0.004247692307692307,0.00425025641025641,0.004251794871794871,0.004251282051282051,0.004252307692307692,0.005354358974358974,0.004272820512820513,0.005024102564102563,0.004963589743589743,0.004905641025641025,0.0049584615384615375,0.00488051282051282
1785785388.734375,0.0042497435897435884,0.004252820512820513,0.004247692307692307,0.00425025641025641,0.004251794871794871,0.004251282051282051,0.004252307692307692,0.005348717948717948,0.004278461538461538,0.00503128205128205,0.0049676923076923075,0.004909743589743588,0.004964615384615383,0.004878461538461538
1785785388.7421875,0.0042497435897435884,0.004252307692307692,0.004247692307692307,0.00425025641025641,0.004251794871794871,0.004251282051282051,0.004252307692307692,0.005356410256410256,0.0042743589743589735,0.005024102564102563,0.004964102564102563,0.004907179487179486,0.004959487179487179,0.00487025641025641
1785785388.75,0.0042497435897435884,0.004252820512820513,0.004247692307692307,0.00425025641025641,0.004251794871794871,0.004251282051282051,0.004252307692307692,0.005356410256410256,0.004266666666666666,0.005022051282051281,0.00497025641025641,0.00491025641025641,0.004963589743589743,0.004873846153846153
1785785388.7578125,0.0042497435897435884,0.004252307692307692,0.004247692307692307,0.00425025641025641,0.004251794871794871,0.004251282051282051,0.004252307692307692,0.005356410256410256,0.004264615384615384,0.005021538461538461,0.004969743589743589,0.004909230769230768,0.004966666666666666,0.004875897435897435
1785785388.765625,0.0042497435897435884,0.004252820512820513,0.004247692307692307,0.00425025641025641,0.004251794871794871,0.004251282051282051,0.004252307692307692,0.005356410256410256,0.004263076923076922,0.005018461538461538,0.0049676923076923075,0.004907179487179486,0.004964615384615383,0.004873846153846153
1785785388.7734375,0.0042497435897435884,0.004252820512820513,0.004247692307692307,0.00425025641025641,0.004251794871794871,0.004251282051282051,0.004252307692307692,0.005353333333333333,0.004261538461538461,0.005016410256410256,0.004973333333333333,0.004908205128205128,0.004967179487179486,0.004874358974358973
1785785388.78125,0.0042497435897435884,0.004252307692307692,0.004247692307692307,0.00425025641025641,0.004251794871794871,0.004251282051282051,0.004252307692307692,0.005354871794871794,0.004264615384615384,0.005014358974358974,0.004972307692307692,0.004904615384615384,0.0049610256410256405,0.004876410256410255
1785785388.7890625,0.0042497435897435884,0.004252820512820513,0.004247692307692307,0.00425025641025641,0.004251794871794871,0.004251282051282051,0.004252307692307692,0.005352307692307691,0.004266153846153846,0.005018461538461538,0.004968717948717948,0.004905641025641025,0.004962564102564102,0.00488051282051282
1785785388.796875,0.0042497435897435884,0.004252307692307692,0.004247692307692307,0.00425025641025641,0.004251794871794871,0.004251282051282051,0.004252307692307692,0.005355384615384615,0.00427025641025641,0.005013333333333333,0.0049656410256410256,0.004905128205128205,0.004953846153846153,0.004879487179487179
1785785388.8046875,0.0042497435897435884,0.004252820512820513,0.004247692307692307,0.00425025641025641,0.004251794871794871,0.004251282051282051,0.004252307692307692,0.005345641025641025,0.004275897435897435,0.005026153846153845,0.004975384615384615,0.004911282051282051,0.004962564102564102,0.004884615384615384
1785785388.8125,0.0042497435897435884,0.004252307692307692,0.004247692307692307,0.00425025641025641,0.004251794871794871,0.004251282051282051,0.004252307692307692,0.0053538461538461535,0.004274871794871795,0.005022051282051281,0.004962051282051281,0.004903589743589743,0.004953333333333333,0.004877948717948718
1785785388.8203125,0.0042497435897435884,0.004252820512820513,0.004247692307692307,0.00425025641025641,0.004251794871794871,0.004251282051282051,0.004252307692307692,0.0053471794871794865,0.004278461538461538,0.0050292307692307685,0.0049717948717948705,0.004911282051282051,0.0049676923076923075,0.004887692307692307
1785785388.828125,0.0042497435897435884,0.004252307692307692,0.004247692307692307,0.00425025641025641,0.004251794871794871,0.004251282051282051,0.004252307692307692,0.005352820512820512,0.004279487179487179,0.005021538461538461,0.004965128205128204,0.004904102564102563,0.004962051282051281,0.004882564102564102
1785785388.8359375,0.0042497435897435884,0.004252820512820513,0.004247692307692307,0.00425025641025641,0.004251794871794871,0.004251282051282051,0.004252307692307692,0.00535076923076923,0.004275384615384615,0.005029743589743589,0.004968205128205128,0.004907692307692307,0.004964615384615383,0.004882051282051281
1785785388.84375,0.0042497435897435884,0.004252307692307692,0.004247692307692307,0.00425025641025641,0.004251794871794871,0.004251282051282051,0.004252307692307692,0.005356923076923076,0.0042697435897435885,0.005026153846153845,0.004961538461538461,0.004906666666666666,0.004957435897435896,0.004873333333333333
1785785388.8515625,0.0042497435897435884,0.004252820512820513,0.004247692307692307,0.00425025641025641,0.004251794871794871,0.004251282051282051,0.004252307692307692,0.005356923076923076,0.004271794871794871,0.005028205128205128,0.0049656410256410256,0.004909230769230768,0.004965128205128204,0.0048728205128205125
1785785388.859375,0.0042497435897435884,0.004252307692307692,0.004247692307692307,0.00425025641025641,0.004251794871794871,0.004251282051282051,0.004252307692307692,0.005369743589743589,0.004268205128205128,0.005022051282051281,0.004966666666666666,0.00490051282051282,0.004962564102564102,0.00486
1785785388.8671875,0.004248717948717948,0.004252307692307692,0.004247179487179486,0.0042497435897435884,0.004251282051282051,0.00425025641025641,0.004251794871794871,0.00529076923076923,0.004262564102564102,0.0050758974358974356,0.005028717948717948,0.004966153846153846,0.00503128205128205,0.0049143589743589735
1785785388.875,0.004248717948717948,0.004251282051282051,0.004247179487179486,0.004248717948717948,0.004250769230769231,0.0042497435897435884,0.004251794871794871,0.005383589743589743,0.004262564102564102,0.005005641025641025,0.004944615384615383,0.004886666666666666,0.004955897435897435,0.004848717948717948
1785785388.8828125,0.00425025641025641,0.004252307692307692,0.004244615384615384,0.0042497435897435884,0.004251794871794871,0.00425025641025641,0.004251794871794871,0.005432820512820512,0.00426051282051282,0.004985641025641025,0.00493025641025641,0.004854871794871794,0.004882564102564102,0.004808717948717948
1785785388.890625,0.004248717948717948,0.004252307692307692,0.004248205128205128,0.0042497435897435884,0.004251794871794871,0.004250769230769231,0.004252307692307692,0.005065128205128205,0.004249230769230768,0.005206153846153846,0.005157435897435897,0.005131282051282051,0.0051928205128205125,0.005074358974358974
1785785388.8984375,0.0042497435897435884,0.004252307692307692,0.004251794871794871,0.004250769230769231,0.004251794871794871,0.00425025641025641,0.004254871794871795,0.005239999999999999,0.004266153846153846,0.004885128205128205,0.00475025641025641,0.004893333333333333,0.004898461538461538,0.004921538461538461
1785785388.90625,0.0042610256410256404,0.0042610256410256404,0.004242564102564102,0.004256410256410255,0.00426051282051282,0.0042589743589743585,0.004262051282051281,0.0056846153846153834,0.004347692307692308,0.00445076923076923,0.004211282051282051,0.004452820512820512,0.004203589743589743,0.004559487179487179
1785785388.9140625,0.0042723076923076924,0.004277948717948718,0.004268205128205128,0.0042743589743589735,0.0042743589743589735,0.004276923076923076,0.0042764102564102555,0.00563025641025641,0.004389743589743589,0.00446153846153846,0.004357948717948717,0.00448,0.004258461538461538,0.004565128205128205
1785785388.921875,0.0042723076923076924,0.004288205128205128,0.004287179487179486,0.004282051282051281,0.00428,0.0042897435897435885,0.00429025641025641,0.005264615384615383,0.004365641025641025,0.004635897435897435,0.00477025641025641,0.004768717948717948,0.00477025641025641,0.0048148717948717935
1785785388.9296875,0.004266666666666666,0.004283589743589743,0.004284615384615383,0.0042723076923076924,0.00427025641025641,0.004284102564102563,0.004282564102564102,0.005322564102564102,0.004352820512820513,0.004459487179487178,0.004649230769230768,0.0046451282051282045,0.004714871794871794,0.0047205128205128205
1785785388.9375,0.004247692307692307,0.004266153846153846,0.00427076923076923,0.0042497435897435884,0.004247179487179486,0.004262564102564102,0.00425025641025641,0.0052764102564102555,0.0043692307692307685,0.004436923076923076,0.004595384615384615,0.004596410256410255,0.00465025641025641,0.004682051282051281
1785785388.9453125,0.004213846153846153,0.00424051282051282,0.004251794871794871,0.004222564102564102,0.004215897435897435,0.004233333333333333,0.004211794871794871,0.005107179487179486,0.004356923076923076,0.004496410256410256,0.004674358974358974,0.0046584615384615375,0.004766666666666666,0.004734358974358974
1785785388.953125,0.004183076923076923,0.004210769230769231,0.004229230769230768,0.004196410256410256,0.00418102564102564,0.004197948717948718,0.004173333333333333,0.00510051282051282,0.00435076923076923,0.004418461538461538,0.004612307692307692,0.004595897435897435,0.004674871794871794,0.004681538461538461
1785785388.9609375,0.004162051282051281,0.004187692307692307,0.004203589743589743,0.004171794871794871,0.004153846153846153,0.004169230769230769,0.004125641025641025,0.005021538461538461,0.004355384615384615,0.004425128205128205,0.004588717948717948,0.004586666666666666,0.0046143589743589735,0.004676410256410256
1785785388.96875,0.0041487179487179485,0.004178461538461538,0.0041882051282051275,0.004158974358974358,0.004145641025641025,0.00416102564102564,0.004095384615384615,0.004991794871794871,0.004352820512820513,0.004392307692307691,0.004542051282051281,0.00454102564102564,0.0045856410256410254,0.004638974358974359
1785785388.9765625,0.004147179487179486,0.004178974358974358,0.004172307692307692,0.004155897435897436,0.004147179487179486,0.004164615384615384,0.004092820512820512,0.00494051282051282,0.004352307692307691,0.004382051282051281,0.004511282051282051,0.0045128205128205125,0.004522564102564102,0.004618461538461538
1785785388.984375,0.004152820512820512,0.00418,0.004176410256410256,0.00416051282051282,0.0041487179487179485,0.004169230769230769,0.00410051282051282,0.004893846153846153,0.004355384615384615,0.004373333333333333,0.004473846153846153,0.004466666666666666,0.004497948717948718,0.004584102564102563
1785785388.9921875,0.004152307692307692,0.00418051282051282,0.004172307692307692,0.0041615384615384604,0.00415025641025641,0.004178461538461538,0.00411025641025641,0.004856923076923076,0.0043538461538461535,0.00436051282051282,0.004451282051282051,0.004433846153846153,0.004492307692307691,0.004557435897435898
1785785389.0,0.004153333333333333,0.004185128205128205,0.004168717948717948,0.0041615384615384604,0.004152307692307692,0.004187692307692307,0.0041287179487179484,0.0048215384615384604,0.004353333333333333,0.004354358974358974,0.004436410256410256,0.0044046153846153836,0.004495897435897436,0.004534358974358973
1785785389.0078125,0.004163589743589743,0.004184615384615384,0.0041774358974358975,0.004167179487179486,0.00416,0.004185128205128205,0.004146666666666666,0.004789743589743589,0.004355897435897435,0.0043471794871794865,0.004426153846153845,0.004368205128205128,0.004525641025641025,0.004508717948717948
