lsl_timestamp,TP9,AF7,AF8,TP10,Right AUX
104048.878697416,-911.62109375,-965.8203125,278.3203125,999.0234375,0.0
104048.882603666,588.37890625,825.68359375,86.9140625,351.07421875,0.0
104048.886509916,-905.2734375,-798.828125,-264.6484375,-954.1015625,0.0
104048.890416166,-683.10546875,-973.6328125,-125.48828125,-542.96875,0.0
104048.894322416,880.859375,739.2578125,265.13671875,864.74609375,0.0
104048.898228666,838.37890625,892.08984375,151.3671875,689.94140625,0.0
104048.902134916,-744.62890625,-745.60546875,-238.28125,-764.6484375,0.0
104048.906041166,-979.00390625,-1000.0,-218.26171875,-875.0,0.0
104048.909947416,652.34375,572.75390625,206.0546875,613.76953125,0.0
104048.913853666,-933.10546875,-887.6953125,289.0625,983.3984375,0.0
104048.917759916,-356.93359375,-326.66015625,-136.71875,-368.1640625,0.0
104048.921666166,-1000.0,-1000.0,-308.10546875,-1000.0,0.0
104048.927096,-947.265625,-942.87109375,-117.67578125,-642.578125,0.0
104048.93100225,-998.53515625,-1000.0,-15.13671875,-279.296875,0.0
104048.9349085,-999.0234375,-1000.0,-43.45703125,-386.71875,0.0
104048.93881475,-1000.0,-1000.0,-70.80078125,-567.3828125,0.0
104048.942721,-874.0234375,-1000.0,0.0,-331.54296875,0.0
104048.94662725,-692.3828125,-1000.0,21.97265625,2.9296875,0.0
104048.9505335,-559.08203125,-1000.0,-28.3203125,-80.56640625,0.0
104048.95443975,-685.05859375,-1000.0,-102.05078125,-338.37890625,0.0
104048.958346,-659.66796875,-1000.0,-21.97265625,-270.99609375,0.0
104048.96225225,-451.171875,-1000.0,81.54296875,28.80859375,0.0
104048.9661585,-350.09765625,-1000.0,38.0859375,54.19921875,0.0
104048.97006475,-392.08984375,-1000.0,0.48828125,-209.47265625,0.0
104048.990973583,-478.02734375,-1000.0,23.4375,-265.13671875,0.0
104048.975134125,-310.05859375,-1000.0,26.3671875,7.8125,0.0
104048.979040375,-208.0078125,-1000.0,10.25390625,118.1640625,0.0
104048.982946625,-175.29296875,-1000.0,15.625,-106.4453125,0.0
104048.986852875,-320.3125,-998.046875,18.5546875,-230.46875,0.0
104048.990759125,-203.61328125,-1000.0,9.27734375,-29.296875,0.0
104048.994665375,-146.97265625,-998.046875,-10.7421875,166.9921875,0.0
104048.998571625,-98.14453125,-939.94140625,20.5078125,20.5078125,0.0
104049.002477875,-144.04296875,-950.1953125,30.2734375,-175.29296875,0.0
104049.006384125,-61.5234375,-847.16796875,22.4609375,-24.90234375,0.0
104049.010290375,14.16015625,-839.84375,14.6484375,211.9140625,0.0
104049.014196625,55.6640625,-503.41796875,30.76171875,92.7734375,0.0
104049.0180135,27.83203125,-279.296875,27.83203125,-142.578125,0.0
104049.02191975,30.2734375,-478.515625,-2.9296875,-88.37890625,0.0
104049.025826,87.890625,-476.5625,-3.41796875,121.58203125,0.0
104049.02973225,100.09765625,-160.64453125,-0.9765625,151.85546875,0.0
104049.0336385,172.8515625,-278.80859375,-27.83203125,-49.8046875,0.0
104049.03754475,164.55078125,-785.15625,-65.4296875,-98.6328125,0.0
104049.041451,253.90625,-952.1484375,-88.37890625,123.046875,0.0
104049.04535725,247.0703125,-692.3828125,-23.4375,199.21875,0.0
104049.0492635,293.9453125,-762.20703125,-52.24609375,30.2734375,0.0
104049.05316975,176.26953125,-997.0703125,-89.84375,-96.6796875,0.0
104049.057076,70.3125,-857.421875,-54.6875,18.5546875,0.0
104049.06098225,-166.015625,-913.0859375,-39.0625,167.48046875,0.0
104049.063506875,-304.19921875,-1000.0,-49.8046875,64.453125,0.0
104049.067413125,-561.03515625,-986.328125,-104.00390625,-86.42578125,0.0
104049.071319375,-859.375,-1000.0,-97.16796875,-44.921875,0.0
104049.075225625,-966.30859375,-999.51171875,-81.0546875,88.37890625,0.0
104049.079131875,-1000.0,-1000.0,-102.05078125,23.4375,0.0
104049.083038125,-996.09375,-1000.0,-157.71484375,-141.11328125,0.0
104049.086944375,-1000.0,-1000.0,-150.390625,-133.30078125,0.0
104049.090850625,-1000.0,-1000.0,-86.42578125,-37.59765625,0.0
104049.094756875,-1000.0,-1000.0,-69.82421875,-61.5234375,0.0
104049.098663125,-1000.0,-1000.0,-132.32421875,-163.0859375,0.0
104049.102569375,-1000.0,-1000.0,-107.421875,-183.59375,0.0
104049.106475625,-1000.0,-1000.0,-66.89453125,-72.75390625,0.0
104049.135836333,-1000.0,-1000.0,-111.81640625,10.25390625,0.0
104049.139742583,-1000.0,-1000.0,-107.91015625,-91.30859375,0.0
104049.143648833,-1000.0,-1000.0,-75.1953125,-188.96484375,0.0
104049.147555083,-1000.0,-1000.0,-62.01171875,-89.84375,0.0
104049.151461333,-1000.0,-1000.0,-81.54296875,10.7421875,0.0
104049.155367583,-1000.0,-1000.0,-96.6796875,-37.109375,0.0
104049.159273833,-1000.0,-1000.0,-68.359375,-117.1875,0.0
104049.163180083,-1000.0,-1000.0,-50.29296875,-74.21875,0.0
104049.167086333,-1000.0,-1000.0,-103.02734375,53.7109375,0.0
104049.170992583,-1000.0,-1000.0,-125.0,44.921875,0.0
104049.174898833,-1000.0,-1000.0,-54.6875,-88.8671875,0.0
104049.178805083,-1000.0,-1000.0,-53.22265625,-87.890625,0.0
104049.158866875,-1000.0,-998.046875,-107.421875,20.99609375,0.0
104049.162773125,-1000.0,-1000.0,-94.23828125,36.1328125,0.0
104049.166679375,-1000.0,-989.2578125,-47.36328125,-69.82421875,0.0
104049.170585625,-1000.0,-925.29296875,-42.48046875,-86.42578125,0.0
104049.174491875,-1000.0,-950.1953125,-75.1953125,24.4140625,0.0
104049.178398125,-1000.0,-1000.0,-93.75,60.546875,0.0
104049.182304375,-1000.0,-959.47265625,-58.10546875,-23.92578125,0.0
104049.186210625,-1000.0,-634.765625,-35.64453125,-49.8046875,0.0
104049.190116875,-998.046875,-800.29296875,-101.07421875,44.43359375,0.0
104049.194023125,-1000.0,-1000.0,-83.0078125,80.56640625,0.0
104049.197929375,-991.69921875,-607.91015625,-21.484375,23.4375,0.0
104049.201835625,-946.2890625,-193.84765625,-63.96484375,-13.671875,0.0
104049.207185416,-859.86328125,-402.34375,-84.9609375,19.53125,0.0
104049.211091666,-948.2421875,-401.85546875,-58.10546875,80.078125,0.0
104049.214997916,-944.82421875,-238.28125,-41.015625,53.22265625,0.0
104049.218904166,-711.42578125,117.67578125,-61.03515625,-12.6953125,0.0
104049.222810416,-574.21875,273.4375,-85.44921875,25.87890625,0.0
104049.226716666,-610.3515625,-92.7734375,-88.8671875,104.00390625,0.0
104049.230622916,-702.1484375,-379.39453125,-70.80078125,92.28515625,0.0
104049.234529166,-442.87109375,-22.4609375,-63.96484375,27.34375,0.0
104049.238435416,-312.98828125,-375.0,-116.69921875,55.6640625,0.0
104049.242341666,-301.26953125,104.00390625,-68.84765625,112.3046875,0.0
104049.246247916,-437.5,280.76171875,-60.05859375,96.19140625,0.0
104049.250154166,-296.875,54.6875,-91.796875,32.71484375,0.0
104049.248673583,-127.44140625,572.265625,-54.19921875,-4.39453125,0.0
104049.252579833,-113.76953125,936.03515625,-51.26953125,43.45703125,0.0
104049.256486083,-290.0390625,346.6796875,-109.375,113.76953125,0.0
104049.260392333,-243.65234375,-156.25,-131.34765625,59.08203125,0.0
104049.264298583,-48.33984375,512.20703125,-77.1484375,-8.7890625,0.0
104049.268204833,-62.98828125,795.8984375,-68.84765625,39.0625,0.0
104049.272111083,-203.61328125,298.828125,-111.81640625,116.69921875,0.0
104049.276017333,-269.04296875,-447.75390625,-138.671875,108.3984375,0.0
104049.279923583,-106.93359375,-33.69140625,-80.56640625,30.2734375,0.0
104049.283829833,-114.74609375,-982.421875,-8.7890625,18.5546875,0.0
104049.287736083,-253.90625,828.61328125,-56.640625,67.87109375,0.0
104049.291642333,-504.39453125,68.84765625,-108.88671875,91.30859375,0.0
104049.294593583,-454.58984375,449.70703125,-66.40625,40.0390625,0.0
104049.298499833,-459.9609375,-937.01171875,-35.64453125,23.4375,0.0
104049.302406083,-570.80078125,828.125,-74.70703125,70.3125,0.0
104049.306312333,-852.05078125,95.703125,-114.2578125,80.078125,0.0
104049.310218583,-810.546875,235.3515625,-80.078125,25.390625,0.0
104049.314124833,-733.88671875,739.74609375,-71.2890625,17.08984375,0.0
104049.318031083,-859.375,579.58984375,-100.5859375,79.58984375,0.0
104049.321937333,-961.42578125,-628.41796875,-147.4609375,130.859375,0.0
104049.325843583,-1000.0,-622.55859375,-83.49609375,59.5703125,0.0
104049.329749833,-994.140625,601.5625,-22.4609375,3.90625,0.0
104049.333656083,-1000.0,836.42578125,-46.38671875,42.48046875,0.0
104049.337562333,-1000.0,396.484375,-73.73046875,87.890625,0.0
104049.343561125,-1000.0,118.65234375,-67.3828125,56.640625,0.0
104049.347467375,-1000.0,532.71484375,-53.7109375,-30.76171875,0.0
104049.351373625,-1000.0,689.453125,-87.40234375,8.30078125,0.0
104049.355279875,-1000.0,526.3671875,-74.70703125,98.14453125,0.0
104049.359186125,-1000.0,145.01953125,-61.03515625,74.70703125,0.0
104049.363092375,-1000.0,108.88671875,-78.61328125,17.08984375,0.0
104049.366998625,-1000.0,168.9453125,-97.65625,60.05859375,0.0
104049.370904875,-1000.0,51.7578125,-81.54296875,102.05078125,0.0
104049.374811125,-1000.0,-71.77734375,-57.6171875,72.265625,0.0
104049.378717375,-1000.0,85.44921875,-51.26953125,17.08984375,0.0
104049.382623625,-1000.0,528.3203125,-51.26953125,16.11328125,0.0
104049.386529875,-1000.0,862.79296875,-33.203125,59.08203125,0.0
104049.388521416,-1000.0,514.6484375,-49.8046875,69.3359375,0.0
104049.392427666,-1000.0,107.421875,-68.84765625,8.30078125,0.0
104049.396333916,-1000.0,451.171875,-64.453125,-31.25,0.0
104049.400240166,-1000.0,935.546875,-32.71484375,12.6953125,0.0
104049.404146416,-1000.0,729.4921875,-45.8984375,65.4296875,0.0
104049.408052666,-1000.0,-306.15234375,-101.5625,49.31640625,0.0
104049.411958916,-1000.0,-677.24609375,-109.86328125,0.0,0.0
104049.415865166,-1000.0,413.0859375,-34.66796875,4.8828125,0.0
104049.419771416,-1000.0,535.64453125,-43.9453125,47.8515625,0.0
104049.423677666,-1000.0,-262.20703125,-78.61328125,38.57421875,0.0
104049.427583916,-1000.0,-39.0625,-48.828125,-20.01953125,0.0
104049.431490166,-1000.0,597.16796875,-39.55078125,-4.39453125,0.0
104049.431837458,-994.140625,902.83203125,-20.99609375,57.12890625,0.0
104049.435743708,-1000.0,167.96875,-58.10546875,63.96484375,0.0
104049.439649958,-963.8671875,-41.9921875,-75.1953125,-5.37109375,0.0
104049.443556208,-785.15625,765.13671875,-35.64453125,-27.34375,0.0
104049.447462458,-520.01953125,-968.75,-23.4375,26.85546875,0.0
104049.451368708,-457.03125,-25.390625,-100.09765625,70.3125,0.0
104049.455274958,-340.33203125,-497.0703125,-75.68359375,17.08984375,0.0
104049.459181208,-34.66796875,672.36328125,7.32421875,-26.3671875,0.0
104049.463087458,91.796875,-944.82421875,-11.23046875,45.8984375,0.0
104049.466993708,71.2890625,199.21875,-74.70703125,100.5859375,0.0
104049.470899958,-31.73828125,-83.49609375,-60.05859375,35.15625,0.0
104049.474806208,175.29296875,700.68359375,-23.4375,-48.33984375,0.0
104049.475140333,318.84765625,977.5390625,-32.71484375,-13.18359375,0.0
104049.479046583,318.84765625,585.9375,-53.22265625,55.17578125,0.0
104049.482952833,111.328125,238.76953125,-50.29296875,52.734375,0.0
104049.486859083,248.53515625,641.6015625,-24.90234375,2.9296875,0.0
104049.490765333,383.30078125,967.28515625,-41.50390625,-2.44140625,0.0
104049.494671583,377.44140625,601.07421875,-87.890625,62.01171875,0.0
104049.498577833,205.078125,224.609375,-75.68359375,62.98828125,0.0
104049.502484083,207.51953125,361.81640625,-49.8046875,-11.23046875,0.0
104049.506390333,370.1171875,564.453125,-77.1484375,-29.78515625,0.0
104049.510296583,412.109375,492.1875,-71.2890625,28.3203125,0.0
104049.514202833,297.8515625,604.4921875,-34.1796875,32.2265625,0.0
104049.518109083,237.3046875,535.15625,-36.62109375,-26.85546875,0.0
104049.520611916,476.07421875,740.72265625,-53.7109375,-46.38671875,0.0
104049.524518166,550.78125,959.47265625,-33.69140625,-15.625,0.0
104049.528424416,510.7421875,922.36328125,-31.25,20.99609375,0.0
104049.532330666,361.328125,515.13671875,-59.5703125,-15.13671875,0.0
104049.536236916,444.82421875,533.203125,-59.5703125,-77.63671875,0.0
104049.540143166,448.73046875,902.34375,-44.921875,-57.6171875,0.0
104049.544049416,390.13671875,981.93359375,-20.99609375,-53.22265625,0.0
104049.547955666,159.1796875,777.34375,-20.5078125,-112.3046875,0.0
104049.551861916,228.515625,319.3359375,-81.0546875,-154.78515625,0.0
104049.555768166,393.06640625,628.41796875,-34.66796875,-170.41015625,0.0
104049.559674416,420.41015625,-909.66796875,31.73828125,-138.18359375,0.0
104049.563580666,203.125,739.2578125,-24.90234375,-133.30078125,0.0
104049.585348583,179.6875,433.10546875,-54.19921875,-184.08203125,0.0
104049.589254833,381.8359375,821.2890625,-21.97265625,-217.7734375,0.0
104049.593161083,383.7890625,-913.57421875,-6.34765625,-178.7109375,0.0
104049.597067333,214.84375,637.20703125,-54.6875,-125.48828125,0.0
104049.600973583,77.63671875,-129.39453125,-82.03125,-142.08984375,0.0
104049.604879833,250.9765625,218.26171875,-56.640625,-167.48046875,0.0
104049.608786083,321.77734375,856.93359375,-41.50390625,-147.94921875,0.0
104049.612692333,289.55078125,507.8125,-71.77734375,-96.6796875,0.0
104049.616598583,139.16015625,-678.22265625,-126.953125,-80.56640625,0.0
104049.620504833,310.05859375,92.28515625,-23.92578125,-140.13671875,0.0
104049.624411083,445.80078125,-920.41015625,22.4609375,-111.81640625,0.0
104049.628317333,494.140625,761.71875,-34.66796875,-22.4609375,0.0
104049.652047125,290.0390625,238.76953125,-47.8515625,-21.97265625,0.0
104049.636518458,321.77734375,459.47265625,-19.53125,-77.63671875,0.0
104049.640424708,500.9765625,952.1484375,-23.4375,-54.19921875,0.0
104049.644330958,572.265625,895.01953125,-54.19921875,4.39453125,0.0
104049.648237208,423.33984375,490.234375,-54.6875,31.25,0.0
104049.652143458,352.5390625,111.328125,-63.96484375,14.6484375,0.0
104049.656049708,556.15234375,605.95703125,-63.96484375,-11.23046875,0.0
104049.659955958,585.9375,755.859375,-66.89453125,75.1953125,0.0
104049.663862208,395.01953125,282.2265625,-53.22265625,112.3046875,0.0
104049.667768458,245.1171875,192.87109375,-28.3203125,42.48046875,0.0
104049.671674708,480.46875,678.22265625,-15.625,13.18359375,0.0
104049.675580958,586.42578125,988.76953125,-29.296875,60.05859375,0.0
104049.679902166,531.25,893.5546875,-31.25,121.58203125,0.0
104049.683808416,296.875,608.3984375,-31.25,114.74609375,0.0
104049.687714666,395.99609375,747.55859375,-46.875,40.52734375,0.0
104049.691620916,543.9453125,979.00390625,-34.66796875,51.7578125,0.0
104049.695527166,563.96484375,937.98828125,-15.13671875,129.39453125,0.0
104049.699433416,382.32421875,500.0,-62.98828125,137.6953125,0.0
104049.703339666,424.8046875,112.79296875,-92.7734375,80.078125,0.0
104049.707245916,603.02734375,75.1953125,-96.6796875,61.03515625,0.0
104049.711152166,670.41015625,741.69921875,-40.0390625,106.93359375,0.0
104049.715058416,599.609375,901.3671875,-31.25,175.78125,0.0
104049.718964666,544.921875,381.8359375,-67.3828125,118.65234375,0.0
104049.722870916,708.0078125,688.96484375,-57.6171875,33.203125,0.0
104049.7253575,766.11328125,-955.56640625,-37.109375,71.2890625,0.0
104049.72926375,648.4375,880.859375,-39.55078125,130.37109375,0.0
104049.73317,490.72265625,239.74609375,-81.0546875,127.9296875,0.0
104049.73707625,686.5234375,493.1640625,-54.19921875,84.9609375,0.0
104049.7409825,825.68359375,-957.03125,-22.94921875,122.0703125,0.0
104049.74488875,834.9609375,815.91796875,-59.08203125,182.6171875,0.0
104049.748795,624.51171875,-321.2890625,-110.83984375,174.8046875,0.0
104049.75270125,755.859375,-334.47265625,-58.59375,89.84375,0.0
104049.7566075,933.10546875,923.828125,12.20703125,73.2421875,0.0
104049.76051375,939.453125,965.8203125,-23.4375,133.30078125,0.0
104049.76442,834.47265625,117.1875,-77.1484375,150.87890625,0.0
104049.76832625,867.67578125,159.66796875,-54.19921875,92.28515625,0.0
104049.771887458,985.83984375,906.73828125,-35.64453125,49.8046875,0.0
104049.775793708,959.47265625,963.37890625,-66.40625,110.83984375,0.0
104049.779699958,962.890625,175.78125,-98.14453125,153.80859375,0.0
104049.783606208,961.9140625,-192.3828125,-66.40625,92.28515625,0.0
104049.787512458,965.8203125,631.8359375,-15.13671875,37.109375,0.0
104049.791418708,965.33203125,757.32421875,-52.734375,107.91015625,0.0
104049.795324958,965.33203125,-272.94921875,-115.234375,171.875,0.0
104049.799231208,965.33203125,-425.29296875,-62.5,106.93359375,0.0
104049.803137458,965.33203125,139.6484375,-41.50390625,47.36328125,0.0
104049.807043708,965.33203125,621.58203125,-50.29296875,78.125,0.0
104049.810949958,965.33203125,760.7421875,-37.59765625,133.30078125,0.0
104049.814856208,965.33203125,286.1328125,-41.50390625,134.765625,0.0
104049.819124208,965.33203125,329.1015625,-20.5078125,80.56640625,0.0
104049.823030458,965.33203125,809.5703125,-24.90234375,91.30859375,0.0
104049.826936708,965.33203125,922.8515625,-22.94921875,137.6953125,0.0
104049.830842958,965.33203125,548.828125,-13.671875,127.44140625,0.0
104049.834749208,965.33203125,237.3046875,-32.71484375,70.80078125,0.0
104049.838655458,965.33203125,368.65234375,-48.33984375,47.8515625,0.0
104049.842561708,965.33203125,545.41015625,-43.9453125,74.70703125,0.0
104049.846467958,965.33203125,436.03515625,-31.73828125,108.88671875,0.0
104049.850374208,965.33203125,166.50390625,-23.92578125,73.2421875,0.0
104049.854280458,965.33203125,-60.546875,-72.265625,11.71875,0.0
104049.858186708,965.33203125,498.53515625,-18.5546875,37.109375,0.0
104049.862092958,965.33203125,943.84765625,22.94921875,99.609375,0.0
104049.866188916,965.33203125,132.32421875,-46.38671875,90.33203125,0.0
104049.870095166,965.33203125,38.0859375,-53.7109375,29.78515625,0.0
104049.874001416,965.33203125,802.734375,-14.6484375,50.78125,0.0
104049.877907666,965.33203125,-985.83984375,-10.25390625,106.4453125,0.0
104049.881813916,965.33203125,149.90234375,-50.29296875,92.7734375,0.0
104049.885720166,965.33203125,-499.51171875,-70.3125,33.69140625,0.0
104049.889626416,965.33203125,359.375,-14.6484375,35.15625,0.0
104049.893532666,965.33203125,910.15625,-9.765625,99.609375,0.0
104049.897438916,965.33203125,-70.3125,-80.078125,121.58203125,0.0
104049.901345166,965.33203125,-648.92578125,-78.125,65.91796875,0.0
104049.905251416,965.33203125,508.7890625,0.9765625,-7.32421875,0.0
104049.909157666,965.33203125,-904.296875,3.41796875,26.3671875,0.0
104049.915698625,965.33203125,419.921875,-47.36328125,78.61328125,0.0
104049.919604875,965.8203125,-23.4375,-41.015625,32.2265625,0.0
104049.923511125,962.890625,624.0234375,-9.27734375,-17.578125,0.0
104049.927417375,968.75,-945.3125,-2.9296875,41.015625,0.0
104049.931323625,962.40234375,668.9453125,-29.78515625,93.75,0.0
104049.935229875,920.8984375,-166.015625,-55.6640625,62.01171875,0.0
104049.939136125,947.75390625,7.8125,-21.97265625,20.01953125,0.0
104049.943042375,972.65625,939.94140625,22.4609375,30.76171875,0.0
104049.946948625,965.33203125,565.4296875,-43.9453125,86.42578125,0.0
104049.950854875,919.921875,-245.1171875,-59.5703125,67.87109375,0.0
104049.954761125,937.5,147.94921875,-13.671875,-14.16015625,0.0
104049.958667375,969.7265625,662.59765625,-33.69140625,-13.18359375,0.0
104049.981384041,972.16796875,747.0703125,-39.0625,36.1328125,0.0
104049.962715208,928.22265625,516.6015625,-29.78515625,62.01171875,0.0
104049.966621458,902.83203125,291.50390625,-40.0390625,33.69140625,0.0
104049.970527708,958.49609375,671.38671875,-47.8515625,-0.9765625,0.0
104049.974433958,980.95703125,930.17578125,-48.828125,30.2734375,0.0
104049.978340208,936.5234375,388.18359375,-62.5,55.6640625,0.0
104049.982246458,834.47265625,-85.9375,-42.96875,12.20703125,0.0
104049.986152708,926.26953125,168.9453125,-51.7578125,-23.92578125,0.0
104049.990058958,989.2578125,-36.62109375,-87.40234375,23.4375,0.0
104049.993965208,947.265625,500.0,-17.08984375,50.78125,0.0
104049.997871458,826.66015625,332.51953125,-32.2265625,40.0390625,0.0
104050.001777708,902.83203125,49.31640625,-55.17578125,-4.39453125,0.0
104050.026532125,987.79296875,710.9375,-21.484375,-8.7890625,0.0
104050.008189125,959.9609375,821.2890625,-27.34375,41.015625,0.0
104050.012095375,833.0078125,179.6875,-53.7109375,49.31640625,0.0
104050.016001625,868.1640625,-191.89453125,-64.453125,14.6484375,0.0
104050.019907875,972.65625,501.46484375,-34.1796875,0.0,0.0
104050.023814125,982.91015625,772.94921875,-39.55078125,44.921875,0.0
104050.027720375,877.9296875,79.58984375,-70.80078125,69.3359375,0.0
104050.031626625,758.30078125,-747.0703125,-90.33203125,37.109375,0.0
104050.035532875,918.45703125,-244.140625,-32.71484375,-1.953125,0.0
104050.039439125,-996.58203125,979.4921875,25.87890625,41.015625,0.0
104050.043345375,909.1796875,689.94140625,-27.34375,96.6796875,0.0
104050.047251625,728.02734375,-274.90234375,-64.94140625,66.89453125,0.0
104050.050073958,878.90625,276.85546875,-20.99609375,5.37109375,0.0
104050.053980208,983.88671875,-944.82421875,4.39453125,26.3671875,0.0
104050.057886458,928.7109375,811.03515625,-25.87890625,89.84375,0.0
104050.061792708,710.9375,-174.8046875,-58.59375,104.4921875,0.0
104050.065698958,812.01171875,-203.125,-39.55078125,37.109375,0.0
104050.069605208,993.65234375,555.17578125,-23.4375,-13.18359375,0.0
104050.073511458,967.28515625,613.76953125,-32.71484375,43.45703125,0.0
104050.077417708,769.53125,-618.1640625,-86.9140625,89.84375,0.0
104050.081323958,732.421875,-687.5,-45.41015625,1.953125,0.0
104050.085230208,935.546875,645.5078125,19.04296875,-43.45703125,0.0
104050.089136458,978.515625,970.703125,-5.859375,14.16015625,0.0
104050.093042708,821.77734375,449.21875,-29.296875,63.4765625,0.0
104050.094620208,687.5,106.4453125,-12.20703125,30.76171875,0.0
104050.098526458,893.06640625,606.93359375,0.9765625,-9.765625,0.0
104050.102432708,978.02734375,912.109375,-12.20703125,36.1328125,0.0
104050.106338958,862.79296875,690.91796875,-12.20703125,75.1953125,0.0
104050.110245208,628.90625,134.27734375,-22.4609375,48.33984375,0.0
104050.114151458,791.015625,61.5234375,-32.71484375,-5.859375,0.0
104050.118057708,920.41015625,216.796875,-33.203125,17.578125,0.0
104050.121963958,861.328125,205.56640625,-0.9765625,73.2421875,0.0
104050.125870208,598.14453125,140.13671875,30.2734375,62.01171875,0.0
104050.129776458,645.99609375,144.04296875,20.99609375,22.4609375,0.0
104050.133682708,834.9609375,419.921875,0.48828125,65.4296875,0.0
104050.137588958,838.8671875,830.078125,15.13671875,82.03125,0.0
104050.136893625,608.3984375,491.2109375,-3.41796875,37.59765625,0.0
104050.140799875,531.73828125,-76.171875,-31.73828125,-0.9765625,0.0
104050.144706125,757.8125,337.890625,-16.11328125,-7.32421875,0.0
104050.148612375,815.4296875,912.109375,9.27734375,21.97265625,0.0
104050.152518625,676.26953125,622.55859375,0.48828125,53.22265625,0.0
104050.156424875,498.046875,-441.89453125,-55.6640625,41.9921875,0.0
104050.160331125,679.19921875,-869.62890625,-78.125,0.48828125,0.0
104050.164237375,759.27734375,278.3203125,7.8125,20.5078125,0.0
104050.168143625,672.8515625,409.1796875,-9.765625,76.66015625,0.0
104050.172049875,457.51953125,-549.8046875,-45.8984375,57.12890625,0.0
104050.175956125,605.46875,-95.21484375,0.0,-3.41796875,0.0
104050.179862375,726.07421875,876.953125,23.4375,22.94921875,0.0
104050.182560875,674.31640625,941.89453125,16.6015625,81.54296875,0.0
104050.186467125,419.921875,-174.8046875,-38.0859375,51.7578125,0.0
104050.190373375,426.7578125,-377.44140625,-18.5546875,-9.765625,0.0
104050.194279625,618.65234375,683.59375,42.48046875,11.71875,0.0
104050.198185875,620.60546875,-986.81640625,24.90234375,56.15234375,0.0
104050.202092125,383.30078125,-159.66796875,-78.61328125,68.359375,0.0
104050.205998375,283.69140625,-830.56640625,-58.10546875,26.3671875,0.0
104050.209904625,506.8359375,310.546875,43.45703125,-14.6484375,0.0
104050.213810875,579.1015625,964.35546875,44.43359375,33.203125,0.0
104050.217717125,437.01171875,-61.03515625,-27.83203125,87.40234375,0.0
104050.221623375,235.83984375,-653.80859375,-14.16015625,55.6640625,0.0
104050.225529625,428.22265625,109.86328125,21.484375,17.578125,0.0
104050.228622291,541.50390625,429.6875,-15.13671875,63.4765625,0.0
104050.232528541,471.19140625,208.984375,-17.578125,97.65625,0.0
104050.236434791,243.65234375,-247.55859375,0.48828125,59.08203125,0.0
104050.240341041,388.671875,-32.71484375,15.625,5.37109375,0.0
104050.244247291,556.15234375,494.62890625,7.8125,33.203125,0.0
104050.248153541,520.99609375,173.828125,-27.83203125,92.28515625,0.0
104050.252059791,284.66796875,-469.23828125,-28.3203125,86.42578125,0.0
104050.255966041,277.34375,-358.3984375,3.41796875,22.4609375,0.0
104050.259872291,475.5859375,-83.0078125,-17.578125,9.27734375,0.0
104050.263778541,512.6953125,-375.0,-42.48046875,62.5,0.0
104050.267684791,337.40234375,-208.49609375,13.671875,68.84765625,0.0
104050.271591041,228.515625,-246.09375,28.3203125,30.76171875,0.0
104050.275069708,447.265625,7.32421875,8.30078125,4.8828125,0.0
104050.278975958,517.08984375,504.39453125,10.25390625,29.78515625,0.0
104050.282882208,400.390625,122.55859375,-2.9296875,67.3828125,0.0
104050.286788458,188.96484375,-543.9453125,-3.41796875,31.25,0.0
104050.290694708,370.1171875,-326.66015625,-6.34765625,-4.8828125,0.0
104050.294600958,519.53125,102.5390625,-9.27734375,33.203125,0.0
104050.298507208,457.03125,177.734375,3.90625,67.3828125,0.0
104050.302413458,185.546875,-273.4375,-8.7890625,45.41015625,0.0
104050.306319708,283.69140625,-817.3828125,-50.29296875,22.4609375,0.0
104050.310225958,433.10546875,-231.4453125,-5.37109375,18.5546875,0.0
104050.314132208,429.6875,715.33203125,38.57421875,35.64453125,0.0
104050.318038458,227.05078125,-40.0390625,-24.4140625,53.22265625,0.0
104050.347027666,183.10546875,-693.359375,-34.1796875,24.90234375,0.0
104050.350933916,363.28125,254.8828125,12.6953125,-2.44140625,0.0
104050.354840166,375.0,921.875,19.04296875,43.45703125,0.0
104050.358746416,228.02734375,206.0546875,-30.2734375,77.63671875,0.0
104050.362652666,91.796875,-735.83984375,-51.26953125,36.62109375,0.0
104050.366558916,303.7109375,-245.1171875,-10.7421875,-2.44140625,0.0
104050.370465166,411.62109375,399.90234375,6.8359375,41.50390625,0.0
104050.374371416,312.5,25.390625,-23.92578125,83.0078125,0.0
104050.378277666,77.1484375,-860.3515625,-73.2421875,51.26953125,0.0
104050.382183916,245.1171875,-281.73828125,14.16015625,-13.671875,0.0
104050.386090166,379.39453125,815.91796875,56.640625,27.34375,0.0
104050.389996416,343.75,632.32421875,-4.8828125,86.9140625,0.0
104050.369119041,96.19140625,-356.93359375,-28.80859375,45.8984375,0.0
104050.373025291,142.578125,-269.04296875,-2.44140625,-27.34375,0.0
104050.376931541,352.5390625,556.15234375,7.8125,-6.34765625,0.0
104050.380837791,381.34765625,582.51953125,-2.44140625,59.5703125,0.0
104050.384744041,145.01953125,-100.5859375,-10.25390625,60.05859375,0.0
104050.388650291,55.17578125,-587.890625,-21.484375,25.87890625,0.0
104050.392556541,282.71484375,-21.97265625,-14.16015625,-1.46484375,0.0
104050.396462791,348.6328125,122.0703125,-34.66796875,37.109375,0.0
104050.400369041,189.94140625,-383.30078125,-30.2734375,76.171875,0.0
104050.404275291,34.66796875,-300.78125,16.6015625,26.85546875,0.0
104050.408181541,229.4921875,256.34765625,14.6484375,-19.53125,0.0
104050.412087791,311.5234375,525.87890625,-2.44140625,29.78515625,0.0
104050.460139916,249.51171875,487.3046875,2.9296875,62.98828125,0.0
104050.446101625,27.34375,-42.96875,-12.6953125,29.296875,0.0
104050.450007875,154.78515625,-42.96875,-17.08984375,-11.71875,0.0
104050.453914125,293.9453125,541.50390625,1.46484375,13.18359375,0.0
104050.457820375,277.34375,751.953125,11.23046875,61.03515625,0.0
104050.461726625,49.31640625,-176.7578125,-43.9453125,33.69140625,0.0
104050.465632875,85.44921875,-636.71875,-48.828125,-24.4140625,0.0
104050.469539125,287.109375,-445.80078125,-39.55078125,-0.48828125,0.0
104050.473445375,313.96484375,217.28515625,2.9296875,56.15234375,0.0
104050.477351625,100.5859375,153.80859375,5.37109375,62.01171875,0.0
104050.481257875,20.5078125,-492.1875,-24.90234375,23.92578125,0.0
104050.485164125,257.32421875,233.3984375,7.32421875,-2.44140625,0.0
104050.465600166,272.4609375,-972.65625,34.1796875,44.43359375,0.0
104050.469506416,125.48828125,655.76171875,-0.9765625,73.73046875,0.0
104050.473412666,-58.59375,-407.2265625,-50.78125,30.76171875,0.0
104050.477318916,128.90625,-20.01953125,-10.7421875,-12.20703125,0.0
104050.481225166,264.6484375,958.49609375,22.94921875,32.71484375,0.0
104050.485131416,211.42578125,583.0078125,-27.83203125,84.9609375,0.0
104050.489037666,-43.45703125,-664.0625,-83.984375,57.12890625,0.0
104050.492943916,80.078125,-491.69921875,-41.015625,0.9765625,0.0
104050.496850166,249.51171875,809.08203125,24.90234375,1.46484375,0.0
104050.500756416,245.60546875,953.61328125,1.953125,52.734375,0.0
104050.504662666,21.97265625,-243.1640625,-62.98828125,73.2421875,0.0
104050.508568916,25.390625,-301.7578125,-19.04296875,21.97265625,0.0
104050.511003375,253.41796875,693.84765625,18.5546875,15.625,0.0
104050.514909625,289.55078125,718.75,-27.34375,57.6171875,0.0
104050.518815875,80.078125,-39.55078125,-42.48046875,69.82421875,0.0
104050.522722125,-57.12890625,-316.40625,-6.34765625,19.04296875,0.0
104050.526628375,156.25,445.3125,17.578125,-32.2265625,0.0
104050.530534625,238.28125,580.56640625,-22.94921875,41.9921875,0.0
104050.534440875,127.9296875,-512.6953125,-83.49609375,104.98046875,0.0
104050.538347125,-79.58984375,-755.859375,-33.203125,33.203125,0.0
104050.542253375,106.4453125,-94.23828125,-5.37109375,-18.06640625,0.0
104050.546159625,230.95703125,458.984375,-16.6015625,15.625,0.0
104050.550065875,183.59375,517.08984375,-2.9296875,45.41015625,0.0
104050.553972125,-48.33984375,-71.2890625,-4.39453125,30.76171875,0.0
104050.556574208,50.78125,25.390625,13.671875,-4.39453125,0.0
104050.560480458,230.46875,603.515625,17.578125,13.671875,0.0
104050.564386708,207.51953125,741.69921875,8.7890625,46.38671875,0.0
104050.568292958,-24.4140625,-38.0859375,-17.08984375,35.15625,0.0
104050.572199208,-26.85546875,-432.6171875,-13.671875,-19.04296875,0.0
104050.576105458,182.12890625,-43.45703125,-20.01953125,-20.99609375,0.0
104050.580011708,215.33203125,203.125,-16.6015625,39.55078125,0.0
104050.583917958,65.4296875,247.55859375,15.13671875,47.36328125,0.0
104050.587824208,-78.125,-261.23046875,-6.34765625,14.16015625,0.0
104050.591730458,132.8125,-298.33984375,-43.9453125,-4.8828125,0.0
104050.595636708,216.796875,523.92578125,4.39453125,17.578125,0.0
104050.599542958,116.69921875,699.70703125,22.4609375,54.19921875,0.0
104050.626538583,-86.9140625,-325.1953125,-25.87890625,35.64453125,0.0
104050.630444833,83.984375,-364.74609375,-19.53125,-6.34765625,0.0
104050.634351083,212.890625,624.51171875,9.27734375,28.3203125,0.0
104050.638257333,179.6875,812.98828125,-11.71875,55.17578125,0.0
104050.642163583,-56.640625,-198.73046875,-40.52734375,28.80859375,0.0
104050.646069833,16.11328125,-710.44921875,-38.57421875,-0.9765625,0.0
104050.649976083,201.66015625,76.66015625,-8.30078125,13.18359375,0.0
104050.653882333,189.453125,442.3828125,-5.37109375,41.015625,0.0
104050.657788583,-5.37109375,-388.671875,-51.7578125,48.33984375,0.0
104050.661694833,-34.66796875,-932.12890625,-54.6875,23.4375,0.0
104050.665601083,171.875,117.1875,34.1796875,-7.32421875,0.0
104050.669507333,227.05078125,961.9140625,49.31640625,42.48046875,0.0
104050.646922916,73.73046875,238.76953125,-11.71875,69.3359375,0.0
104050.650829166,-93.26171875,-493.1640625,-20.5078125,7.32421875,0.0
104050.654735416,128.41796875,201.171875,0.9765625,-30.76171875,0.0
104050.658641666,226.5625,889.6484375,2.44140625,20.99609375,0.0
104050.662547916,152.83203125,361.328125,-21.97265625,72.75390625,0.0
104050.666454166,-66.40625,-751.953125,-40.52734375,37.59765625,0.0
104050.670360416,74.21875,-356.4453125,8.30078125,-23.4375,0.0
104050.674266666,211.9140625,796.875,49.31640625,4.8828125,0.0
104050.678172916,179.19921875,193.84765625,-23.4375,68.359375,0.0
104050.682079166,-59.5703125,-915.0390625,-38.57421875,41.50390625,0.0
104050.685985416,-59.08203125,-252.44140625,35.64453125,-26.85546875,0.0
104050.689891666,150.390625,666.015625,26.3671875,-13.18359375,0.0
104050.690677625,192.87109375,550.29296875,-15.13671875,54.19921875,0.0
104050.694583875,-27.83203125,49.31640625,-24.4140625,65.91796875,0.0
104050.698490125,-119.62890625,-121.58203125,-6.34765625,2.9296875,0.0
104050.702396375,124.0234375,391.6015625,2.9296875,-38.0859375,0.0
104050.706302625,189.453125,748.046875,8.30078125,10.25390625,0.0
104050.710208875,41.9921875,158.203125,-8.30078125,60.05859375,0.0
104050.714115125,-133.30078125,-501.46484375,0.48828125,40.0390625,0.0
104050.718021375,72.265625,-50.29296875,18.06640625,16.11328125,0.0
104050.721927625,188.96484375,-67.3828125,-20.01953125,50.29296875,0.0
104050.725833875,138.671875,346.6796875,31.73828125,52.734375,0.0
104050.729740125,-87.890625,83.0078125,21.97265625,15.625,0.0
104050.733646375,14.6484375,-203.125,-8.30078125,-26.85546875,0.0
104050.763910333,166.50390625,567.3828125,30.76171875,-9.765625,0.0
104050.767816583,166.9921875,982.91015625,50.29296875,55.6640625,0.0
104050.771722833,-64.453125,228.515625,11.23046875,46.875,0.0
104050.775629083,-68.359375,-319.82421875,-0.9765625,-6.8359375,0.0
104050.779535333,154.78515625,489.74609375,33.203125,-5.859375,0.0
104050.783441583,198.73046875,796.875,20.5078125,32.2265625,0.0
104050.787347833,15.13671875,52.734375,-10.25390625,48.33984375,0.0
104050.791254083,-91.30859375,-786.1328125,-35.64453125,11.71875,0.0
104050.795160333,114.74609375,-273.92578125,2.9296875,-19.04296875,0.0
104050.799066583,157.71484375,975.09765625,60.546875,31.73828125,0.0
104050.802972833,45.8984375,705.56640625,13.18359375,67.3828125,0.0
104050.806879083,-155.76171875,-394.53125,-19.04296875,23.92578125,0.0
104050.784725416,13.671875,34.1796875,32.71484375,-17.578125,0.0
104050.788631666,143.06640625,948.73046875,57.6171875,9.765625,0.0
104050.792537916,100.5859375,603.515625,18.5546875,51.26953125,0.0
104050.796444166,-136.23046875,-322.75390625,2.44140625,37.59765625,0.0
104050.800350416,-20.5078125,5.37109375,40.0390625,-7.8125,0.0
104050.804256666,173.828125,668.45703125,37.109375,-2.44140625,0.0
104050.808162916,179.6875,564.94140625,12.20703125,27.83203125,0.0
104050.812069166,-38.57421875,-662.59765625,-42.48046875,49.8046875,0.0
104050.815975416,-81.0546875,-742.1875,2.9296875,-3.90625,0.0
104050.819881666,149.90234375,659.1796875,69.3359375,-23.92578125,0.0
104050.823787916,183.59375,948.73046875,40.52734375,44.43359375,0.0
104050.827694166,4.8828125,195.80078125,14.6484375,61.03515625,0.0
104050.855134166,-117.1875,-161.1328125,39.55078125,5.37109375,0.0
104050.859040416,101.5625,492.1875,54.19921875,-19.53125,0.0
104050.862946666,199.21875,905.76171875,39.55078125,44.921875,0.0
104050.866852916,120.1171875,596.6796875,39.55078125,79.1015625,0.0
104050.870759166,-88.37890625,-145.99609375,28.80859375,22.94921875,0.0
104050.874665416,55.6640625,-78.125,26.85546875,-23.92578125,0.0
104050.878571666,183.59375,228.02734375,21.97265625,17.08984375,0.0
104050.882477916,141.6015625,113.76953125,35.15625,57.6171875,0.0
104050.886384166,-92.28515625,6.34765625,47.36328125,27.83203125,0.0
104050.890290416,-33.69140625,-3.41796875,34.1796875,-8.30078125,0.0
104050.894196666,139.16015625,487.3046875,38.57421875,9.765625,0.0
104050.898102916,146.97265625,898.4375,63.4765625,42.48046875,0.0
104050.904382875,-53.7109375,416.50390625,52.734375,31.25,0.0
104050.908289125,-100.5859375,-182.12890625,33.69140625,-4.8828125,0.0
104050.912195375,142.08984375,220.703125,45.8984375,-7.8125,0.0
104050.916101625,203.61328125,918.9453125,80.078125,36.1328125,0.0
104050.920007875,31.73828125,588.8671875,65.91796875,58.59375,0.0
104050.923914125,-128.90625,-562.5,3.90625,22.94921875,0.0
104050.927820375,90.8203125,-789.55078125,-16.6015625,-8.30078125,0.0
104050.931726625,214.35546875,424.31640625,58.59375,20.01953125,0.0
104050.935632875,127.44140625,491.2109375,48.33984375,52.24609375,0.0
104050.939539125,-134.765625,-586.9140625,14.6484375,18.06640625,0.0
104050.943445375,22.94921875,-209.47265625,64.94140625,-29.78515625,0.0
104050.947351625,196.2890625,886.23046875,101.07421875,0.0,0.0
104050.949815041,174.8046875,970.703125,86.42578125,40.0390625,0.0
104050.953721291,-77.63671875,-115.72265625,34.66796875,16.11328125,0.0
104050.957627541,-51.7578125,-315.4296875,60.546875,-28.80859375,0.0
104050.961533791,175.78125,732.421875,105.46875,-7.32421875,0.0
104050.965440041,192.3828125,-978.515625,85.9375,40.52734375,0.0
104050.969346291,-19.53125,-127.44140625,16.6015625,64.453125,0.0
104050.973252541,-95.703125,-781.25,26.3671875,31.25,0.0
104050.977158791,144.53125,379.39453125,99.609375,-17.08984375,0.0
104050.981065041,191.40625,-929.6875,103.02734375,23.4375,0.0
104050.984971291,24.90234375,-66.40625,14.16015625,60.05859375,0.0
104050.988877541,-156.73828125,-935.05859375,11.71875,14.16015625,0.0
104050.992783791,55.6640625,164.0625,90.33203125,-36.1328125,0.0
104050.995362208,173.828125,921.875,85.9375,1.46484375,0.0
104050.999268458,106.93359375,477.05078125,48.828125,53.7109375,0.0
104051.003174708,-138.671875,-229.4921875,41.50390625,44.43359375,0.0
104051.007080958,-0.9765625,66.89453125,72.265625,-5.859375,0.0
104051.010987208,183.59375,785.15625,68.84765625,21.484375,0.0
104051.014893458,160.15625,471.6796875,29.78515625,85.44921875,0.0
104051.018799708,-81.54296875,-442.87109375,18.06640625,59.5703125,0.0
104051.022705958,-75.68359375,-391.6015625,49.8046875,-13.18359375,0.0
104051.026612208,129.8828125,178.22265625,47.8515625,-3.41796875,0.0
104051.030518458,135.7421875,11.71875,31.73828125,66.40625,0.0
104051.034424708,-43.9453125,37.59765625,80.56640625,60.546875,0.0
104051.038330958,-144.04296875,-38.57421875,96.19140625,6.8359375,0.0
104051.038413166,91.796875,125.48828125,69.3359375,-13.671875,0.0
104051.042319416,166.9921875,586.9140625,80.078125,30.76171875,0.0
104051.046225666,35.15625,636.71875,92.28515625,54.19921875,0.0
104051.050131916,-161.1328125,-36.62109375,64.453125,29.78515625,0.0
104051.054038166,38.0859375,-38.57421875,40.0390625,7.8125,0.0
104051.057944416,182.12890625,427.24609375,49.31640625,30.2734375,0.0
104051.061850666,135.25390625,485.3515625,78.61328125,64.453125,0.0
104051.065756916,-121.09375,-61.03515625,72.265625,61.5234375,0.0
104051.069663166,-37.109375,-620.1171875,38.0859375,35.64453125,0.0
104051.073569416,143.06640625,-19.53125,76.171875,25.390625,0.0
104051.077475666,144.04296875,898.92578125,118.65234375,32.71484375,0.0
104051.081381916,-79.1015625,178.7109375,67.3828125,33.203125,0.0
104051.085334166,-96.6796875,-496.58203125,44.921875,-2.44140625,0.0
104051.089240416,145.01953125,436.03515625,81.0546875,-2.9296875,0.0
104051.093146666,173.828125,958.984375,74.21875,57.12890625,0.0
104051.097052916,-0.9765625,104.98046875,29.78515625,80.078125,0.0
104051.100959166,-150.390625,-636.71875,31.25,25.390625,0.0
104051.104865416,52.734375,-126.953125,55.6640625,-23.4375,0.0
104051.108771666,162.109375,614.74609375,87.890625,10.7421875,0.0
104051.112677916,70.80078125,376.953125,65.91796875,64.453125,0.0
104051.116584166,-149.90234375,-808.59375,-14.6484375,65.4296875,0.0
104051.120490416,27.83203125,-195.3125,74.21875,-7.8125,0.0
104051.124396666,188.4765625,957.03125,122.0703125,10.7421875,0.0
104051.128302916,151.3671875,662.59765625,59.08203125,70.80078125,0.0
104051.148124791,-87.40234375,-263.671875,30.76171875,60.05859375,0.0
104051.152031041,-9.27734375,-126.46484375,59.08203125,4.39453125,0.0
104051.142066708,174.31640625,725.09765625,75.1953125,0.48828125,0.0
104051.145972958,164.0625,708.0078125,56.640625,53.7109375,0.0
104051.149879208,-66.89453125,-66.40625,47.8515625,48.828125,0.0
104051.153785458,-105.46875,-595.703125,45.8984375,0.0,0.0
104051.157691708,135.7421875,52.734375,70.3125,-9.27734375,0.0
104051.161597958,191.89453125,223.6328125,53.22265625,52.734375,0.0
104051.165504208,39.55078125,-436.03515625,43.9453125,71.2890625,0.0
104051.169410458,-118.65234375,-414.0625,82.51953125,15.625,0.0
104051.173316708,99.609375,114.74609375,87.890625,-13.671875,0.0
104051.177222958,193.359375,516.6015625,79.1015625,25.390625,0.0
104051.154528666,101.5625,475.5859375,68.359375,62.5,0.0
104051.158434916,-118.65234375,-164.0625,52.734375,22.4609375,0.0
104051.162341166,31.73828125,-177.24609375,39.0625,-22.94921875,0.0
104051.166247416,174.8046875,352.05078125,39.55078125,11.23046875,0.0
104051.170153666,139.16015625,604.98046875,61.5234375,51.26953125,0.0
104051.174059916,-96.6796875,-355.46875,27.83203125,34.66796875,0.0
104051.177966166,-48.828125,-851.5625,24.90234375,-9.27734375,0.0
104051.181872416,166.9921875,-631.34765625,27.83203125,25.390625,0.0
104051.185778666,181.15234375,-49.31640625,62.5,58.59375,0.0
104051.189684916,-20.01953125,-160.15625,61.5234375,34.1796875,0.0
104051.193591166,-119.140625,-632.32421875,47.36328125,-8.7890625,0.0
104051.197497416,120.60546875,113.28125,73.2421875,-24.90234375,0.0
104051.222634208,193.84765625,725.09765625,71.2890625,20.5078125,0.0
104051.226540458,53.22265625,311.5234375,41.015625,53.22265625,0.0
104051.230446708,-117.1875,-589.35546875,2.44140625,21.97265625,0.0
104051.234352958,86.42578125,-166.9921875,40.52734375,-25.390625,0.0
104051.238259208,196.77734375,823.73046875,84.47265625,12.6953125,0.0
104051.242165458,102.5390625,361.81640625,44.43359375,56.15234375,0.0
104051.246071708,-125.48828125,-837.40234375,-13.18359375,33.69140625,0.0
104051.249977958,7.32421875,-654.78515625,32.71484375,-32.71484375,0.0
104051.253884208,172.36328125,645.5078125,107.421875,-33.203125,0.0
104051.257790458,161.1328125,885.25390625,83.0078125,34.66796875,0.0
104051.261696708,-105.95703125,-429.19921875,1.46484375,56.640625,0.0
104051.265602958,-99.609375,-797.36328125,2.9296875,-3.90625,0.0
104051.270168375,144.53125,355.46875,69.3359375,-42.96875,0.0
104051.274074625,170.41015625,777.34375,64.94140625,9.765625,0.0
104051.277980875,-20.01953125,-152.34375,23.4375,41.015625,0.0
104051.281887125,-111.328125,-581.54296875,47.36328125,-6.8359375,0.0
104051.285793375,124.51171875,231.4453125,84.9609375,-26.85546875,0.0
104051.289699625,193.359375,426.26953125,56.640625,31.73828125,0.0
104051.293605875,62.01171875,-635.25390625,2.9296875,59.5703125,0.0
104051.297512125,-137.6953125,-950.1953125,41.50390625,6.8359375,0.0
104051.301418375,61.03515625,-383.7890625,54.6875,-29.296875,0.0
104051.305324625,180.17578125,275.390625,70.80078125,12.6953125,0.0
104051.309230875,130.859375,359.86328125,90.8203125,58.10546875,0.0
104051.313137125,-88.8671875,-268.06640625,71.77734375,27.83203125,0.0
104051.318060208,11.71875,-137.20703125,75.1953125,-18.06640625,0.0
104051.321966458,177.734375,363.28125,62.5,13.671875,0.0
104051.325872708,156.25,374.0234375,59.08203125,53.7109375,0.0
104051.329778958,-59.08203125,-63.96484375,73.2421875,28.3203125,0.0
104051.333685208,-79.58984375,-292.96875,78.125,-23.4375,0.0
104051.337591458,140.13671875,-1.953125,56.15234375,-19.53125,0.0
104051.341497708,171.875,276.3671875,66.40625,15.625,0.0
104051.345403958,1.46484375,197.265625,88.37890625,18.5546875,0.0
104051.349310208,-110.83984375,-317.3828125,66.89453125,-8.7890625,0.0
104051.353216458,94.7265625,-394.53125,35.64453125,-0.48828125,0.0
104051.357122708,171.38671875,219.23828125,74.21875,43.9453125,0.0
104051.361028958,83.49609375,455.078125,89.35546875,52.734375,0.0
104051.360214166,-120.60546875,-416.50390625,38.0859375,13.671875,0.0
104051.364120416,59.08203125,-396.484375,47.8515625,-22.94921875,0.0
104051.368026666,178.7109375,602.5390625,90.8203125,13.671875,0.0
104051.371932916,112.3046875,773.92578125,86.9140625,55.6640625,0.0
104051.375839166,-111.328125,-344.23828125,44.43359375,35.64453125,0.0
104051.379745416,-28.80859375,-822.75390625,45.8984375,-10.7421875,0.0
104051.383651666,149.4140625,71.77734375,81.0546875,-7.32421875,0.0
104051.387557916,163.0859375,626.46484375,94.23828125,34.1796875,0.0
104051.391464166,-37.59765625,-328.125,30.2734375,49.8046875,0.0
104051.395370416,-101.5625,-984.375,2.44140625,8.7890625,0.0
104051.399276666,123.046875,145.99609375,102.05078125,-28.80859375,0.0
104051.403182916,196.77734375,939.94140625,134.765625,22.4609375,0.0
104051.403808583,29.78515625,182.6171875,82.51953125,65.4296875,0.0
104051.407714833,-135.7421875,-580.56640625,80.078125,19.04296875,0.0
104051.411621083,73.2421875,101.07421875,122.0703125,-16.6015625,0.0
104051.415527333,165.0390625,854.98046875,125.9765625,36.1328125,0.0
104051.419433583,69.3359375,278.3203125,69.82421875,73.2421875,0.0
104051.423339833,-152.34375,-870.60546875,35.64453125,41.9921875,0.0
104051.427246083,4.8828125,-655.2734375,71.2890625,-26.85546875,0.0
104051.431152333,140.625,284.1796875,95.703125,-21.97265625,0.0
104051.435058583,121.58203125,3.41796875,60.05859375,35.64453125,0.0
104051.438964833,-124.51171875,-858.3984375,65.91796875,34.1796875,0.0
104051.442871083,-96.19140625,-270.5078125,132.8125,-14.6484375,0.0
104051.446777333,125.9765625,541.015625,129.39453125,-4.8828125,0.0
104051.447324125,149.4140625,502.9296875,106.4453125,44.43359375,0.0
104051.451230375,-54.6875,48.828125,102.5390625,56.640625,0.0
104051.455136625,-109.375,-235.83984375,113.76953125,15.625,0.0
104051.459042875,116.69921875,259.765625,115.234375,-5.859375,0.0
104051.462949125,169.921875,536.62109375,90.8203125,54.19921875,0.0
104051.466855375,41.50390625,-76.171875,62.01171875,91.30859375,0.0
104051.470761625,-143.06640625,-639.16015625,68.359375,21.484375,0.0
104051.474667875,73.73046875,-146.484375,99.12109375,-34.1796875,0.0
104051.478574125,203.125,-207.51953125,67.87109375,18.5546875,0.0
104051.482480375,87.890625,-86.42578125,92.28515625,41.9921875,0.0
104051.486386625,-145.01953125,-481.4453125,78.125,5.37109375,0.0
104051.490292875,-3.90625,-431.15234375,86.9140625,-23.4375,0.0
104051.490972416,160.64453125,515.13671875,128.90625,35.15625,0.0
104051.494878666,163.57421875,751.46484375,116.69921875,62.5,0.0
104051.498784916,-65.91796875,-172.36328125,71.2890625,28.3203125,0.0
104051.502691166,-75.1953125,-557.6171875,65.91796875,-18.5546875,0.0
104051.506597416,139.6484375,266.11328125,100.5859375,-21.97265625,0.0
104051.510503666,154.78515625,517.578125,95.21484375,36.1328125,0.0
104051.514409916,-48.33984375,-249.51171875,69.82421875,57.12890625,0.0
104051.518316166,-156.73828125,-992.1875,45.8984375,26.85546875,0.0
104051.522222416,53.7109375,-453.61328125,87.40234375,-11.71875,0.0
104051.526128666,126.46484375,729.4921875,152.34375,9.27734375,0.0
104051.530034916,28.3203125,449.70703125,102.05078125,46.38671875,0.0
104051.533941166,-148.92578125,-644.53125,58.10546875,24.90234375,0.0
104051.562406,48.33984375,-299.31640625,84.9609375,-8.7890625,0.0
104051.56631225,159.66796875,622.0703125,106.4453125,12.6953125,0.0
104051.5702185,86.42578125,563.96484375,93.75,42.96875,0.0
104051.57412475,-157.2265625,-457.51953125,58.10546875,6.8359375,0.0
104051.578031,-48.828125,-278.80859375,74.21875,-39.55078125,0.0
104051.58193725,152.34375,416.9921875,84.47265625,-7.8125,0.0
104051.5858435,133.30078125,288.57421875,66.40625,41.50390625,0.0
104051.58974975,-101.5625,-767.578125,3.90625,44.43359375,0.0
104051.593656,-120.60546875,-898.92578125,55.17578125,-23.4375,0.0
104051.59756225,108.3984375,276.3671875,123.53515625,-34.66796875,0.0
104051.6014685,155.2734375,649.4140625,99.12109375,29.296875,0.0
104051.60537475,-11.71875,-1.46484375,76.171875,43.45703125,0.0
104051.583102541,-118.1640625,-421.875,65.4296875,-0.9765625,0.0
104051.587008791,120.60546875,224.12109375,81.0546875,-23.92578125,0.0
104051.590915041,199.21875,533.203125,67.3828125,27.83203125,0.0
104051.594821291,67.87109375,-52.24609375,51.26953125,61.5234375,0.0
104051.598727541,-156.25,-535.15625,79.58984375,40.52734375,0.0
104051.602633791,29.78515625,-308.59375,74.70703125,-3.41796875,0.0
104051.606540041,191.89453125,-10.25390625,61.03515625,11.23046875,0.0
104051.610446291,151.85546875,-107.421875,77.1484375,53.22265625,0.0
104051.614352541,-102.5390625,-264.6484375,98.14453125,21.484375,0.0
104051.618258791,-36.1328125,-187.01171875,100.09765625,-9.765625,0.0
104051.622165041,148.4375,140.13671875,79.1015625,27.83203125,0.0
104051.626071291,146.97265625,570.80078125,97.65625,58.59375,0.0
104051.651057291,-54.6875,-20.5078125,72.75390625,52.734375,0.0
104051.654963541,-103.02734375,-601.07421875,57.12890625,10.25390625,0.0
104051.658869791,126.953125,-12.6953125,81.0546875,-8.7890625,0.0
104051.662776041,187.98828125,703.125,91.796875,29.296875,0.0
104051.666682291,42.96875,382.32421875,72.75390625,31.25,0.0
104051.670588541,-124.0234375,-789.0625,30.76171875,2.44140625,0.0
104051.674494791,48.828125,-1000.0,20.99609375,3.90625,0.0
104051.678401041,134.765625,42.96875,101.07421875,45.41015625,0.0
104051.682307291,43.9453125,226.07421875,100.09765625,58.59375,0.0
104051.686213541,-175.29296875,-725.09765625,52.734375,15.13671875,0.0
104051.690119791,-12.6953125,-431.640625,90.33203125,-24.90234375,0.0
104051.694026041,137.20703125,653.3203125,115.72265625,4.39453125,0.0
104051.697562041,112.3046875,790.0390625,87.890625,39.55078125,0.0
104051.701468291,-126.46484375,-278.3203125,28.80859375,22.94921875,0.0
104051.705374541,-88.37890625,-516.11328125,33.69140625,-30.2734375,0.0
104051.709280791,118.65234375,496.09375,72.265625,-25.390625,0.0
104051.713187041,124.0234375,882.32421875,60.546875,15.13671875,0.0
104051.717093291,-73.2421875,-272.4609375,-18.06640625,47.36328125,0.0
104051.720999541,-133.30078125,-930.17578125,-13.18359375,10.25390625,0.0
104051.724905791,89.84375,202.63671875,57.12890625,-23.92578125,0.0
104051.728812041,144.53125,708.984375,41.015625,33.203125,0.0
104051.732718291,-0.9765625,-309.08203125,-29.78515625,64.453125,0.0
104051.736624541,-179.6875,-840.8203125,-3.90625,12.20703125,0.0
104051.740530791,33.69140625,127.9296875,57.12890625,-44.921875,0.0
104051.744043291,158.69140625,756.8359375,46.38671875,-1.953125,0.0
104051.747949541,93.75,286.1328125,16.6015625,55.17578125,0.0
104051.751855791,-141.6015625,-400.390625,15.13671875,26.3671875,0.0
104051.755762041,-8.30078125,-80.56640625,33.69140625,-30.76171875,0.0
104051.759668291,163.0859375,600.09765625,34.1796875,-8.30078125,0.0
104051.763574541,142.08984375,160.15625,-4.8828125,58.10546875,0.0
104051.767480791,-80.56640625,-557.12890625,-9.765625,42.48046875,0.0
104051.771387041,-65.4296875,-451.66015625,20.01953125,-3.90625,0.0
104051.775293291,132.32421875,-50.78125,7.32421875,7.8125,0.0
104051.779199541,137.20703125,-101.07421875,-14.6484375,39.0625,0.0
104051.783105791,-45.41015625,-203.125,0.48828125,33.69140625,0.0
104051.787012041,-153.80859375,-656.25,-8.7890625,-9.27734375,0.0
104051.79248625,67.87109375,-230.46875,-3.90625,-18.5546875,0.0
104051.7963925,152.83203125,626.953125,33.69140625,24.90234375,0.0
104051.80029875,33.203125,425.78125,26.3671875,43.9453125,0.0
104051.804205,-161.62109375,-354.00390625,2.44140625,9.765625,0.0
104051.80811125,36.62109375,-350.09765625,2.9296875,-16.6015625,0.0
104051.8120175,159.66796875,55.6640625,21.484375,13.671875,0.0
104051.81592375,102.5390625,270.99609375,49.31640625,37.109375,0.0
104051.81983,-133.7890625,-188.96484375,44.43359375,19.04296875,0.0
104051.82373625,-44.921875,-803.7109375,5.859375,0.48828125,0.0
104051.8276425,121.58203125,-186.03515625,43.45703125,22.94921875,0.0
104051.83154875,117.67578125,771.484375,91.796875,49.8046875,0.0
104051.835455,-98.14453125,23.92578125,34.66796875,24.4140625,0.0
104051.835091833,-129.39453125,-628.41796875,18.06640625,-29.296875,0.0
104051.838998083,100.5859375,160.15625,53.7109375,-25.87890625,0.0
104051.842904333,131.34765625,687.98828125,67.87109375,35.64453125,0.0
104051.846810583,-36.62109375,153.80859375,38.57421875,50.78125,0.0
104051.850716833,-145.99609375,-650.87890625,12.6953125,-3.41796875,0.0
104051.854623083,52.734375,-277.83203125,22.94921875,-28.80859375,0.0
104051.858529333,137.20703125,369.140625,45.8984375,24.90234375,0.0
104051.862435583,56.15234375,100.5859375,33.203125,72.75390625,0.0
104051.866341833,-152.83203125,-849.609375,-30.76171875,47.36328125,0.0
104051.870248083,17.578125,-243.65234375,44.921875,-27.83203125,0.0
104051.874154333,161.1328125,841.796875,90.33203125,-0.9765625,0.0
104051.878060583,130.37109375,527.83203125,37.109375,77.1484375,0.0
104051.880185583,-107.421875,-396.97265625,20.99609375,62.01171875,0.0
104051.884091833,-50.29296875,-216.796875,49.8046875,-9.765625,0.0
104051.887998083,142.08984375,619.62890625,66.89453125,-9.765625,0.0
104051.891904333,151.3671875,590.8203125,47.36328125,50.78125,0.0
104051.895810583,-70.80078125,-312.98828125,22.94921875,65.4296875,0.0
104051.899716833,-133.7890625,-784.66796875,32.2265625,18.06640625,0.0
104051.903623083,94.23828125,-57.12890625,59.5703125,-0.48828125,0.0
104051.907529333,166.015625,185.05859375,46.38671875,52.24609375,0.0
104051.911435583,20.5078125,-402.83203125,42.48046875,65.4296875,0.0
104051.915341833,-153.80859375,-424.8046875,85.44921875,8.7890625,0.0
104051.919248083,55.6640625,187.5,101.07421875,-27.83203125,0.0
104051.923154333,158.203125,469.23828125,72.265625,20.01953125,0.0
104051.94705325,57.12890625,409.1796875,71.77734375,57.12890625,0.0
104051.929605625,-166.9921875,-169.921875,65.91796875,14.16015625,0.0
104051.933511875,-12.6953125,-162.109375,56.15234375,-20.99609375,0.0
104051.937418125,152.34375,460.9375,75.1953125,20.01953125,0.0
104051.941324375,116.69921875,675.78125,83.984375,49.31640625,0.0
104051.945230625,-137.6953125,-313.96484375,33.69140625,33.203125,0.0
104051.949136875,-94.23828125,-855.46875,22.94921875,-5.859375,0.0
104051.953043125,108.88671875,-586.9140625,22.4609375,9.27734375,0.0
104051.956949375,123.53515625,112.79296875,65.91796875,57.6171875,0.0
104051.960855625,-57.12890625,135.25390625,73.73046875,48.828125,0.0
104051.964761875,-142.08984375,-503.90625,45.8984375,-4.39453125,0.0
104051.968668125,80.078125,-11.23046875,77.63671875,-20.01953125,0.0
104051.987012708,161.1328125,870.1171875,107.421875,37.59765625,0.0
104051.990918958,28.80859375,518.06640625,64.94140625,62.01171875,0.0
104051.976657625,-146.97265625,-555.17578125,16.11328125,18.06640625,0.0
104051.980563875,51.7578125,-145.5078125,57.6171875,-27.83203125,0.0
104051.984470125,171.38671875,784.1796875,86.9140625,-5.859375,0.0
104051.988376375,100.09765625,373.53515625,50.29296875,52.734375,0.0
104051.992282625,-155.2734375,-793.45703125,-12.20703125,49.8046875,0.0
104051.996188875,-39.0625,-639.6484375,23.92578125,-7.8125,0.0
104052.000095125,151.85546875,653.80859375,104.98046875,-0.9765625,0.0
104052.004001375,155.76171875,727.05078125,68.84765625,54.19921875,0.0
104052.007907625,-103.515625,-458.984375,24.4140625,38.0859375,0.0
104052.011813875,-100.5859375,-487.79296875,69.82421875,-15.625,0.0
104052.015387333,121.09375,562.98828125,102.05078125,-7.32421875,0.0
104052.019293583,164.0625,798.33984375,77.1484375,41.015625,0.0
104052.023199833,-25.87890625,-164.55078125,32.71484375,46.38671875,0.0
104052.027106083,-152.83203125,-529.296875,60.05859375,13.671875,0.0
104052.031012333,87.40234375,313.4765625,89.84375,8.30078125,0.0
104052.034918583,183.59375,509.765625,57.12890625,61.5234375,0.0
104052.038824833,68.359375,-602.05078125,-6.34765625,87.40234375,0.0
104052.042731083,-135.25390625,-948.2421875,37.109375,30.2734375,0.0
104052.046637333,31.25,-299.31640625,71.2890625,-19.53125,0.0
104052.050543583,160.15625,345.21484375,55.6640625,14.16015625,0.0
104052.054449833,109.86328125,448.73046875,63.4765625,49.8046875,0.0
104052.058356083,-139.6484375,-232.421875,44.43359375,29.296875,0.0
104052.060884541,-35.15625,-411.62109375,33.69140625,-10.25390625,0.0
104052.064790791,149.4140625,196.77734375,49.31640625,5.859375,0.0
104052.068697041,131.34765625,589.84375,69.82421875,53.22265625,0.0
104052.072603291,-79.58984375,40.52734375,50.29296875,34.1796875,0.0
104052.076509541,-95.21484375,-313.96484375,42.48046875,-6.8359375,0.0
104052.080415791,129.8828125,-80.56640625,24.90234375,9.27734375,0.0
104052.084322041,180.17578125,161.62109375,30.2734375,47.8515625,0.0
104052.088228291,-10.7421875,190.91796875,61.03515625,50.78125,0.0
104052.092134541,-143.5546875,-296.875,54.19921875,0.48828125,0.0
104052.096040791,81.0546875,-359.375,32.2265625,-24.90234375,0.0
104052.099947041,160.15625,386.23046875,67.3828125,21.97265625,0.0
104052.103853291,59.08203125,587.40234375,80.56640625,49.8046875,0.0
104052.130147916,-154.78515625,-349.12109375,33.69140625,9.765625,0.0
104052.134054166,-2.9296875,-341.796875,35.64453125,-41.9921875,0.0
104052.137960416,110.83984375,555.17578125,68.84765625,-16.6015625,0.0
104052.141866666,82.03125,526.85546875,61.03515625,45.8984375,0.0
104052.145772916,-142.08984375,-357.91015625,25.87890625,40.0390625,0.0
104052.149679166,-72.75390625,-758.7890625,15.625,-10.25390625,0.0
104052.153585416,116.2109375,147.4609375,67.3828125,-1.953125,0.0
104052.157491666,135.25390625,667.96875,73.73046875,58.10546875,0.0
104052.161397916,-70.3125,-354.4921875,8.7890625,67.3828125,0.0
104052.165304166,-126.46484375,-878.90625,2.44140625,1.953125,0.0
104052.169210416,100.5859375,210.44921875,84.47265625,-36.1328125,0.0
104052.173116666,151.3671875,909.66796875,97.65625,12.6953125,0.0
104052.151713458,-0.48828125,95.21484375,35.64453125,49.8046875,0.0
104052.155619708,-147.94921875,-662.109375,28.3203125,14.16015625,0.0
104052.159525958,62.98828125,99.609375,67.3828125,-17.08984375,0.0
104052.163432208,173.33984375,874.51171875,77.63671875,16.6015625,0.0
104052.167338458,85.9375,284.66796875,41.9921875,46.875,0.0
104052.171244708,-153.3203125,-819.3359375,22.94921875,25.390625,0.0
104052.175150958,5.37109375,-578.61328125,57.6171875,-8.30078125,0.0
104052.179057208,172.8515625,313.96484375,73.2421875,17.578125,0.0
104052.182963458,136.71875,54.19921875,39.0625,60.05859375,0.0
104052.186869708,-121.09375,-817.87109375,40.0390625,45.41015625,0.0
104052.190775958,-68.359375,-357.91015625,95.21484375,-3.90625,0.0
104052.194682208,147.4609375,519.53125,98.14453125,-5.859375,0.0
104052.198624166,155.2734375,410.15625,63.4765625,48.828125,0.0
104052.202530416,-51.26953125,-69.82421875,64.94140625,52.734375,0.0
104052.206436666,-119.62890625,-265.13671875,73.2421875,5.37109375,0.0
104052.210342916,98.6328125,213.8671875,68.84765625,-9.27734375,0.0
104052.214249166,152.34375,551.26953125,68.84765625,42.48046875,0.0
104052.218155416,14.16015625,-72.75390625,43.9453125,70.3125,0.0
104052.222061666,-167.96875,-649.90234375,56.15234375,21.97265625,0.0
104052.225967916,47.8515625,-181.640625,75.68359375,0.48828125,0.0
104052.229874166,161.62109375,-328.125,25.390625,57.12890625,0.0
104052.233780416,70.80078125,-173.828125,56.640625,71.2890625,0.0
104052.237686666,-155.2734375,-225.5859375,82.03125,25.390625,0.0
104052.241592916,-18.5546875,-274.4140625,76.171875,4.39453125,0.0
104052.286989625,156.25,441.40625,97.16796875,34.1796875,0.0
104052.290895875,150.390625,838.8671875,106.4453125,59.5703125,0.0
104052.280820541,-91.796875,43.45703125,61.03515625,35.64453125,0.0
104052.284726791,-94.7265625,-518.06640625,33.203125,-6.34765625,0.0
104052.288633041,117.67578125,260.25390625,64.94140625,0.48828125,0.0
104052.292539291,157.2265625,537.109375,61.03515625,55.17578125,0.0
104052.296445541,-29.296875,-211.42578125,34.66796875,66.89453125,0.0
104052.300351791,-134.27734375,-969.7265625,19.53125,20.01953125,0.0
104052.304258041,75.68359375,-459.9609375,57.12890625,-12.20703125,0.0
104052.308164291,151.85546875,759.765625,102.5390625,28.3203125,0.0
104052.312070541,49.31640625,403.80859375,44.921875,76.171875,0.0
104052.315976791,-136.23046875,-741.69921875,10.7421875,27.34375,0.0
104052.294537458,47.36328125,-166.015625,61.03515625,-35.15625,0.0
104052.298443708,181.640625,889.16015625,88.37890625,7.8125,0.0
104052.302349958,130.859375,600.5859375,53.7109375,55.17578125,0.0
104052.306256208,-108.88671875,-599.12109375,23.4375,32.71484375,0.0
104052.310162458,-4.8828125,-403.80859375,50.78125,-14.6484375,0.0
104052.314068708,171.38671875,316.40625,56.15234375,-0.48828125,0.0
104052.317974958,165.0390625,244.140625,44.43359375,61.5234375,0.0
104052.321881208,-52.734375,-749.0234375,-15.625,80.56640625,0.0
104052.325787458,-89.84375,-895.5078125,28.80859375,-1.46484375,0.0
104052.329693708,123.53515625,313.4765625,89.84375,-19.53125,0.0
104052.333599958,171.38671875,707.51953125,54.19921875,41.9921875,0.0
104052.337506208,-8.7890625,-42.96875,28.3203125,62.01171875,0.0
104052.340416583,-130.37109375,-425.78125,37.109375,12.6953125,0.0
104052.344322833,85.9375,45.8984375,38.0859375,-17.578125,0.0
104052.348229083,150.390625,371.09375,33.69140625,36.62109375,0.0
104052.352135333,57.12890625,242.1875,37.109375,60.546875,0.0
104052.356041583,-148.4375,-388.18359375,15.625,8.30078125,0.0
104052.359947833,12.6953125,-357.421875,5.859375,-30.2734375,0.0
104052.363854083,141.11328125,-73.73046875,-7.32421875,36.62109375,0.0
104052.367760333,80.56640625,-225.09765625,5.37109375,87.40234375,0.0
104052.371666583,-149.4140625,-330.078125,44.921875,39.0625,0.0
104052.375572833,-65.4296875,-230.46875,45.41015625,-29.296875,0.0
104052.379479083,135.25390625,203.125,30.2734375,-16.6015625,0.0
104052.383385333,157.71484375,620.60546875,46.38671875,41.50390625,0.0
104052.386062875,-54.6875,141.6015625,29.78515625,33.69140625,0.0
104052.389969125,-115.72265625,-463.37890625,7.8125,-11.23046875,0.0
104052.393875375,113.28125,25.87890625,25.87890625,-14.16015625,0.0
104052.397781625,170.41015625,656.73828125,43.9453125,33.203125,0.0
104052.401687875,20.5078125,77.1484375,11.23046875,55.17578125,0.0
104052.405594125,-137.20703125,-912.109375,-24.4140625,31.25,0.0
104052.409500375,81.54296875,-893.06640625,-13.671875,13.18359375,0.0
104052.413406625,157.71484375,269.53125,65.91796875,26.85546875,0.0
104052.417312875,67.87109375,244.140625,50.78125,62.98828125,0.0
104052.421219125,-138.671875,-759.27734375,11.23046875,46.38671875,0.0
104052.425125375,-7.32421875,-381.34765625,55.6640625,-21.484375,0.0
104052.429031625,132.32421875,701.66015625,83.0078125,-15.13671875,0.0
104052.432054875,111.81640625,839.84375,56.640625,49.8046875,0.0
104052.435961125,-122.0703125,-316.40625,5.859375,45.41015625,0.0
104052.439867375,-92.7734375,-519.04296875,26.3671875,-28.3203125,0.0
104052.443773625,107.421875,533.69140625,61.5234375,-28.80859375,0.0
104052.447679875,131.34765625,836.42578125,48.828125,30.2734375,0.0
104052.451586125,-53.22265625,-270.01953125,-21.484375,59.08203125,0.0
104052.455492375,-141.6015625,-940.4296875,-20.5078125,21.97265625,0.0
104052.459398625,85.44921875,-15.13671875,49.8046875,-16.11328125,0.0
104052.463304875,161.62109375,819.82421875,69.3359375,15.13671875,0.0
104052.467211125,4.39453125,-82.51953125,18.5546875,41.50390625,0.0
104052.471117375,-173.828125,-804.6875,43.9453125,0.48828125,0.0
104052.475023625,36.62109375,125.48828125,90.8203125,-33.69140625,0.0
104052.477998583,148.92578125,689.453125,59.5703125,18.06640625,0.0
104052.481904833,77.63671875,246.58203125,27.83203125,67.87109375,0.0
104052.485811083,-145.99609375,-372.0703125,21.97265625,23.4375,0.0
104052.489717333,-21.97265625,-68.84765625,47.36328125,-43.9453125,0.0
104052.493623583,142.08984375,544.921875,53.7109375,-2.9296875,0.0
104052.497529833,137.6953125,160.64453125,23.4375,56.640625,0.0
104052.501436083,-106.4453125,-492.67578125,27.83203125,37.59765625,0.0
104052.505342333,-102.05078125,-343.75,57.6171875,-9.765625,0.0
104052.509248583,128.90625,20.5078125,29.78515625,2.44140625,0.0
104052.513154833,144.04296875,-196.2890625,8.30078125,49.8046875,0.0
104052.517061083,-51.26953125,-202.1484375,55.6640625,48.828125,0.0
104052.520967333,-137.20703125,-282.2265625,69.82421875,20.01953125,0.0
104052.519547125,88.8671875,73.2421875,58.59375,-0.9765625,0.0
104052.523453375,149.4140625,645.01953125,70.80078125,28.80859375,0.0
104052.527359625,21.97265625,450.1953125,69.82421875,48.33984375,0.0
104052.531265875,-156.25,-243.65234375,47.8515625,4.8828125,0.0
104052.535172125,43.9453125,-189.94140625,40.52734375,-23.92578125,0.0
104052.539078375,164.55078125,236.328125,41.50390625,22.94921875,0.0
104052.542984625,103.515625,285.64453125,49.8046875,53.22265625,0.0
104052.546890875,-138.18359375,-234.86328125,36.62109375,19.53125,0.0
104052.550797125,-41.9921875,-747.0703125,4.8828125,-11.71875,0.0
104052.554703375,113.28125,-179.6875,54.6875,-12.6953125,0.0
104052.558609625,105.95703125,746.58203125,110.83984375,18.5546875,0.0
104052.562515875,-108.3984375,-38.57421875,60.546875,34.66796875,0.0
104052.56472075,-134.765625,-806.15234375,46.875,-7.8125,0.0
104052.568627,96.19140625,226.5625,111.328125,-21.484375,0.0
104052.57253325,134.27734375,970.703125,124.0234375,16.11328125,0.0
104052.5764395,-24.4140625,201.66015625,83.984375,44.43359375,0.0
104052.58034575,-128.41796875,-716.30859375,71.77734375,3.90625,0.0
104052.584252,73.2421875,-245.1171875,107.91015625,-38.57421875,0.0
104052.58815825,145.01953125,564.94140625,158.69140625,4.8828125,0.0
104052.5920645,61.03515625,312.5,139.6484375,52.24609375,0.0
104052.59597075,-147.4609375,-833.49609375,80.56640625,34.1796875,0.0
104052.599877,1.46484375,-308.59375,184.08203125,-20.5078125,0.0
104052.60378325,154.296875,829.58984375,237.79296875,15.13671875,0.0
104052.6076895,137.6953125,547.36328125,184.5703125,78.125,0.0
104052.653057208,-107.91015625,-409.1796875,172.8515625,53.7109375,0.0
104052.639071458,-50.29296875,-218.26171875,197.265625,-24.90234375,0.0
104052.642977708,158.69140625,504.8828125,199.70703125,0.0,0.0
104052.646883958,144.04296875,436.5234375,183.59375,50.29296875,0.0
104052.650790208,-86.42578125,-192.87109375,177.734375,14.16015625,0.0
104052.654696458,-121.09375,-683.10546875,166.50390625,-23.92578125,0.0
104052.658602708,107.421875,-43.45703125,173.828125,-30.2734375,0.0
104052.662508958,161.62109375,154.78515625,158.203125,21.97265625,0.0
104052.666415208,-9.765625,-508.7890625,161.62109375,59.08203125,0.0
104052.670321458,-164.55078125,-435.546875,205.56640625,23.4375,0.0
104052.674227708,53.22265625,190.4296875,202.63671875,-5.859375,0.0
104052.678133958,159.1796875,479.4921875,179.19921875,20.99609375,0.0
104052.655693041,78.125,367.1875,178.7109375,55.6640625,0.0
104052.659599291,-142.578125,-201.171875,165.52734375,28.80859375,0.0
104052.663505541,10.25390625,-169.43359375,164.0625,-16.6015625,0.0
104052.667411791,169.43359375,428.22265625,181.640625,20.5078125,0.0
104052.671318041,144.04296875,585.44921875,178.22265625,62.98828125,0.0
104052.675224291,-91.30859375,-334.9609375,145.99609375,42.96875,0.0
104052.679130541,-61.5234375,-796.38671875,135.7421875,11.71875,0.0
104052.683036791,132.32421875,-704.58984375,113.28125,39.0625,0.0
104052.686943041,143.06640625,-34.1796875,156.25,66.40625,0.0
104052.690849291,-61.5234375,25.87890625,159.1796875,43.45703125,0.0
104052.694755541,-132.8125,-594.23828125,131.34765625,11.23046875,0.0
104052.698661791,110.83984375,79.1015625,158.203125,-10.25390625,0.0
104052.728789333,160.64453125,886.23046875,174.8046875,14.16015625,0.0
104052.732695583,9.765625,491.2109375,145.99609375,48.33984375,0.0
104052.736601833,-168.9453125,-583.0078125,98.14453125,13.18359375,0.0
104052.740508083,24.4140625,-149.90234375,126.953125,-38.0859375,0.0
104052.744414333,141.6015625,828.125,153.3203125,-3.41796875,0.0
104052.748320583,71.77734375,370.60546875,106.93359375,44.921875,0.0
104052.752226833,-157.71484375,-784.1796875,55.6640625,29.78515625,0.0
104052.756133083,-32.71484375,-707.51953125,84.9609375,-24.4140625,0.0
104052.760039333,127.44140625,341.796875,143.5546875,-11.71875,0.0
104052.763945583,124.51171875,680.17578125,135.7421875,44.43359375,0.0
104052.767851833,-98.6328125,-347.16796875,89.84375,32.2265625,0.0
104052.771758083,-103.02734375,-520.01953125,110.3515625,-12.6953125,0.0
104052.771852416,107.91015625,518.06640625,139.6484375,-10.7421875,0.0
104052.775758666,141.11328125,790.0390625,123.046875,29.296875,0.0
104052.779664916,-49.31640625,-160.15625,77.63671875,49.8046875,0.0
104052.783571166,-155.2734375,-526.3671875,90.8203125,18.06640625,0.0
104052.787477416,93.75,311.5234375,120.60546875,-17.578125,0.0
104052.791383666,178.7109375,412.109375,86.42578125,53.22265625,0.0
104052.795289916,31.25,-627.44140625,35.15625,110.83984375,0.0
104052.799196166,-184.08203125,-858.3984375,85.44921875,32.2265625,0.0
104052.803102416,7.32421875,-208.49609375,100.5859375,-24.4140625,0.0
104052.807008666,133.7890625,375.48828125,87.40234375,16.11328125,0.0
104052.810914916,83.0078125,200.68359375,94.7265625,52.24609375,0.0
104052.814821166,-156.25,-531.25,87.890625,17.08984375,0.0
104052.820131291,-67.87109375,-178.22265625,112.79296875,-20.99609375,0.0
104052.824037541,112.3046875,500.48828125,106.93359375,9.27734375,0.0
104052.827943791,106.4453125,595.703125,101.5625,38.0859375,0.0
104052.831850041,-107.91015625,-19.04296875,86.42578125,32.2265625,0.0
104052.835756291,-108.3984375,-289.0625,77.63671875,-15.13671875,0.0
104052.839662541,108.3984375,-47.36328125,62.98828125,-19.53125,0.0
104052.843568791,134.27734375,199.70703125,82.03125,21.97265625,0.0
104052.847475041,-39.55078125,199.21875,96.6796875,33.203125,0.0
104052.851381291,-158.69140625,-344.23828125,75.1953125,21.484375,0.0
104052.855287541,83.0078125,-299.31640625,62.5,10.7421875,0.0
104052.859193791,172.36328125,478.02734375,94.7265625,29.78515625,0.0
104052.863100041,72.75390625,638.18359375,95.703125,56.640625,0.0
104052.8682365,-124.51171875,-356.93359375,42.96875,34.1796875,0.0
104052.87214275,29.296875,-527.83203125,42.96875,-11.71875,0.0
104052.876049,152.34375,468.26171875,90.8203125,4.8828125,0.0
104052.87995525,108.3984375,777.34375,101.07421875,43.9453125,0.0
104052.8838615,-149.4140625,-239.74609375,61.03515625,19.04296875,0.0
104052.88776775,-82.51953125,-826.171875,38.57421875,-20.99609375,0.0
104052.891674,125.9765625,134.27734375,90.8203125,12.6953125,0.0
104052.89558025,133.7890625,749.51171875,112.3046875,56.15234375,0.0
104052.8994865,-74.21875,-329.58984375,31.25,41.50390625,0.0
104052.90339275,-135.7421875,-902.83203125,9.27734375,-0.48828125,0.0
104052.907299,78.61328125,132.32421875,84.47265625,-12.20703125,0.0
104052.91120525,137.6953125,871.09375,104.98046875,40.52734375,0.0
104052.917641666,-18.5546875,132.32421875,58.59375,67.87109375,0.0
104052.921547916,-170.8984375,-619.140625,67.87109375,9.27734375,0.0
104052.925454166,48.33984375,122.0703125,117.67578125,-32.2265625,0.0
104052.929360416,153.80859375,763.671875,123.53515625,8.30078125,0.0
104052.933266666,57.6171875,137.6953125,86.9140625,53.22265625,0.0
104052.937172916,-161.62109375,-931.640625,61.03515625,40.0390625,0.0
104052.941079166,-0.9765625,-524.90234375,114.2578125,-14.6484375,0.0
104052.944985416,153.80859375,654.78515625,150.390625,-7.8125,0.0
104052.948891666,119.140625,191.89453125,77.63671875,51.26953125,0.0
104052.952797916,-122.55859375,-895.5078125,55.17578125,43.45703125,0.0
104052.956704166,-71.2890625,-336.9140625,116.69921875,-25.87890625,0.0
104052.960610416,141.11328125,581.54296875,122.0703125,-18.5546875,0.0
104052.964034375,143.5546875,564.94140625,84.47265625,30.76171875,0.0
104052.967940625,-83.0078125,-13.671875,65.91796875,37.59765625,0.0
104052.971846875,-150.390625,-256.8359375,93.26171875,17.08984375,0.0
104052.975753125,90.33203125,268.06640625,103.02734375,2.44140625,0.0
104052.979659375,158.69140625,556.15234375,87.40234375,31.25,0.0
104052.983565625,11.23046875,-44.43359375,54.19921875,61.03515625,0.0
104052.987471875,-170.8984375,-810.05859375,39.55078125,18.5546875,0.0
104052.991378125,41.015625,-490.234375,56.15234375,-25.87890625,0.0
104052.995284375,149.4140625,-356.93359375,45.8984375,34.66796875,0.0
104052.999190625,106.4453125,84.9609375,99.609375,68.84765625,0.0
104053.003096875,-116.69921875,-157.71484375,92.7734375,21.484375,0.0
104053.007003125,-9.27734375,-338.37890625,70.80078125,-26.85546875,0.0
104053.027494041,156.25,470.703125,100.09765625,-15.625,0.0
104053.009196041,135.7421875,785.64453125,102.5390625,33.203125,0.0
104053.013102291,-107.91015625,-23.92578125,57.6171875,36.1328125,0.0
104053.017008541,-92.7734375,-570.80078125,37.59765625,-17.578125,0.0
104053.020914791,130.37109375,175.78125,70.80078125,-16.11328125,0.0
104053.024821041,157.2265625,533.69140625,66.89453125,36.1328125,0.0
104053.028727291,-20.99609375,-254.39453125,29.296875,51.7578125,0.0
104053.032633541,-125.9765625,-969.7265625,13.18359375,1.953125,0.0
104053.036539791,80.078125,-404.78515625,53.7109375,-30.2734375,0.0
104053.040446041,154.296875,520.01953125,88.8671875,22.4609375,0.0
104053.044352291,31.25,308.59375,56.15234375,51.26953125,0.0
104053.048258541,-152.83203125,-696.77734375,12.20703125,16.6015625,0.0
104053.050515333,38.57421875,-174.31640625,59.5703125,-6.8359375,0.0
104053.054421583,167.96875,848.14453125,88.37890625,20.01953125,0.0
104053.058327833,113.76953125,547.36328125,39.0625,56.15234375,0.0
104053.062234083,-135.7421875,-548.828125,18.5546875,41.50390625,0.0
104053.066140333,-31.25,-332.51953125,64.453125,-7.8125,0.0
104053.070046583,145.99609375,341.796875,62.5,1.953125,0.0
104053.073952833,117.67578125,192.87109375,41.9921875,55.17578125,0.0
104053.077859083,-104.4921875,-778.3203125,-21.484375,69.3359375,0.0
104053.081765333,-112.3046875,-875.48828125,17.578125,0.9765625,0.0
104053.085671583,102.05078125,308.10546875,77.63671875,-28.80859375,0.0
104053.089577833,152.83203125,728.02734375,55.17578125,16.6015625,0.0
104053.093484083,-5.859375,-81.0546875,24.90234375,26.3671875,0.0
104053.096282041,-150.87890625,-713.8671875,25.390625,-21.97265625,0.0
104053.100188291,62.5,115.72265625,63.4765625,-38.0859375,0.0
104053.104094541,169.43359375,641.6015625,61.5234375,27.83203125,0.0
104053.108000791,72.265625,253.41796875,31.25,53.7109375,0.0
104053.111907041,-131.34765625,-386.23046875,16.11328125,45.41015625,0.0
104053.115813291,33.203125,-280.76171875,26.85546875,11.23046875,0.0
104053.119719541,148.4375,-6.34765625,16.11328125,20.5078125,0.0
104053.123625791,78.125,-125.48828125,26.3671875,46.875,0.0
104053.127532041,-156.25,-275.87890625,45.8984375,5.37109375,0.0
104053.131438291,-67.87109375,-222.16796875,45.8984375,-32.71484375,0.0
104053.135344541,115.234375,132.8125,38.57421875,-3.41796875,0.0
104053.139250791,125.0,545.8984375,47.8515625,39.55078125,0.0
104053.14325475,-73.2421875,125.0,26.85546875,30.76171875,0.0
104053.147161,-137.20703125,-474.12109375,6.34765625,-5.859375,0.0
104053.15106725,79.1015625,-212.40234375,7.8125,-14.16015625,0.0
104053.1549735,139.6484375,481.93359375,41.50390625,34.1796875,0.0
104053.15887975,0.48828125,297.8515625,41.015625,55.6640625,0.0
104053.162786,-143.06640625,-819.82421875,-17.578125,14.6484375,0.0
104053.16669225,56.15234375,-996.09375,-30.76171875,-12.6953125,0.0
104053.1705985,142.578125,146.484375,53.22265625,8.30078125,0.0
104053.17450475,60.05859375,229.00390625,40.0390625,47.8515625,0.0
104053.178411,-145.99609375,-791.50390625,-7.8125,28.3203125,0.0
104053.18231725,-2.44140625,-390.625,30.76171875,-14.6484375,0.0
104053.1862235,152.83203125,637.20703125,58.10546875,21.484375,0.0
104053.234840333,130.859375,687.01171875,42.96875,55.17578125,0.0
104053.217412625,-127.44140625,-360.83984375,-5.859375,40.52734375,0.0
104053.221318875,-73.73046875,-555.6640625,12.20703125,23.92578125,0.0
104053.225225125,150.390625,468.75,45.8984375,17.08984375,0.0
104053.229131375,151.85546875,760.25390625,25.390625,30.76171875,0.0
104053.233037625,-75.1953125,-301.26953125,-35.64453125,31.25,0.0
104053.236943875,-152.83203125,-1000.0,-43.45703125,-6.34765625,0.0
104053.240850125,81.54296875,-82.51953125,22.4609375,-23.92578125,0.0
104053.244756375,150.87890625,732.421875,40.52734375,14.6484375,0.0
104053.248662625,18.5546875,-250.0,-39.0625,57.12890625,0.0
104053.252568875,-154.296875,-927.24609375,-18.5546875,15.13671875,0.0
104053.256475125,41.50390625,50.29296875,49.31640625,-30.76171875,0.0
104053.236219708,149.4140625,689.453125,23.4375,15.13671875,0.0
104053.240125958,79.58984375,185.05859375,-22.4609375,58.59375,0.0
104053.244032208,-146.484375,-554.6875,-29.78515625,24.90234375,0.0
104053.247938458,-12.20703125,-187.98828125,5.37109375,-30.2734375,0.0
104053.251844708,153.80859375,543.45703125,6.8359375,6.34765625,0.0
104053.255750958,129.39453125,198.2421875,-28.80859375,68.359375,0.0
104053.259657208,-127.44140625,-598.14453125,-36.62109375,36.62109375,0.0
104053.263563458,-118.65234375,-497.55859375,-1.46484375,-36.1328125,0.0
104053.267469708,117.1875,-74.70703125,-11.71875,-16.11328125,0.0
104053.271375958,161.1328125,-321.77734375,-40.0390625,50.78125,0.0
104053.275282208,-23.92578125,-325.1953125,-4.39453125,43.45703125,0.0
104053.279188458,-140.625,-353.515625,-5.859375,0.9765625,0.0
104053.284365208,66.40625,-21.97265625,-17.08984375,-18.06640625,0.0
104053.288271458,138.671875,549.31640625,13.671875,28.3203125,0.0
104053.292177708,16.6015625,394.04296875,9.765625,58.10546875,0.0
104053.296083958,-168.9453125,-325.68359375,-9.27734375,23.92578125,0.0
104053.299990208,30.76171875,-261.23046875,-13.671875,-6.34765625,0.0
104053.303896458,163.0859375,160.15625,-18.06640625,23.92578125,0.0
104053.307802708,101.07421875,190.91796875,-13.18359375,46.38671875,0.0
104053.311708958,-129.39453125,-292.96875,-4.39453125,16.6015625,0.0
104053.315615208,-20.5078125,-776.3671875,-18.5546875,-10.7421875,0.0
104053.319521458,149.4140625,-202.1484375,19.04296875,9.765625,0.0
104053.323427708,144.53125,535.15625,30.76171875,50.78125,0.0
104053.327333958,-74.21875,-343.75,-32.71484375,59.08203125,0.0
104053.369704333,-101.5625,-864.74609375,-39.55078125,13.18359375,0.0
104053.355678125,112.79296875,223.6328125,8.30078125,-20.01953125,0.0
104053.359584375,169.43359375,946.2890625,24.4140625,19.04296875,0.0
104053.363490625,1.953125,179.6875,-10.25390625,45.41015625,0.0
104053.367396875,-144.53125,-669.921875,-12.20703125,-8.7890625,0.0
104053.371303125,60.546875,-247.55859375,1.46484375,-41.9921875,0.0
104053.375209375,143.5546875,520.5078125,19.53125,7.32421875,0.0
104053.379115625,33.203125,295.41015625,-12.6953125,52.24609375,0.0
104053.383021875,-159.66796875,-832.51953125,-81.0546875,43.9453125,0.0
104053.386928125,24.4140625,-250.0,5.37109375,-27.34375,0.0
104053.390834375,164.0625,870.60546875,50.29296875,-24.90234375,0.0
104053.394740625,130.37109375,639.6484375,3.41796875,39.55078125,0.0
104053.375171833,-111.328125,-433.10546875,-28.3203125,34.66796875,0.0
104053.379078083,-45.8984375,-541.015625,-0.9765625,-14.6484375,0.0
104053.382984333,154.78515625,472.65625,49.31640625,9.27734375,0.0
104053.386890583,145.01953125,676.7578125,39.0625,59.08203125,0.0
104053.390796833,-89.35546875,-126.46484375,10.7421875,45.8984375,0.0
104053.394703083,-100.09765625,-660.64453125,10.25390625,-0.9765625,0.0
104053.398609333,115.234375,-50.78125,36.1328125,-13.671875,0.0
104053.402515583,125.9765625,225.09765625,29.78515625,42.48046875,0.0
104053.406421833,-30.2734375,-381.34765625,38.0859375,71.2890625,0.0
104053.410328083,-160.64453125,-417.96875,69.3359375,4.39453125,0.0
104053.414234333,61.03515625,135.25390625,61.5234375,-20.99609375,0.0
104053.418140583,169.921875,405.2734375,41.9921875,24.90234375,0.0
104053.4244775,80.56640625,373.046875,51.7578125,45.8984375,0.0
104053.42838375,-149.90234375,-144.04296875,45.8984375,19.04296875,0.0
104053.43229,3.90625,-95.21484375,41.015625,-25.87890625,0.0
104053.43619625,142.08984375,322.265625,40.0390625,0.0,0.0
104053.4401025,97.65625,369.140625,45.41015625,50.78125,0.0
104053.44400875,-135.7421875,-424.31640625,24.4140625,39.0625,0.0
104053.447915,-88.8671875,-743.1640625,22.4609375,-5.859375,0.0
104053.45182125,113.28125,-562.5,5.37109375,24.4140625,0.0
104053.4557275,116.69921875,0.48828125,42.48046875,54.6875,0.0
104053.45963375,-74.70703125,148.92578125,63.96484375,45.41015625,0.0
104053.46354,-127.9296875,-450.68359375,33.203125,16.11328125,0.0
104053.46744625,70.3125,151.3671875,62.5,8.30078125,0.0
104053.468103708,124.0234375,931.15234375,84.47265625,42.96875,0.0
104053.472009958,4.39453125,466.796875,49.31640625,49.31640625,0.0
104053.475916208,-161.1328125,-522.4609375,31.73828125,23.92578125,0.0
104053.479822458,30.76171875,-112.3046875,70.3125,-18.5546875,0.0
104053.483728708,136.23046875,811.5234375,81.0546875,15.13671875,0.0
104053.487634958,54.19921875,287.109375,27.34375,51.26953125,0.0
104053.491541208,-165.52734375,-870.60546875,-29.78515625,23.92578125,0.0
104053.495447458,-40.52734375,-642.08984375,13.671875,-13.18359375,0.0
104053.499353708,139.6484375,654.296875,97.16796875,-3.90625,0.0
104053.503259958,139.16015625,896.97265625,74.70703125,51.7578125,0.0
104053.507166208,-104.4921875,-355.95703125,5.37109375,55.6640625,0.0
104053.511072458,-95.21484375,-482.91015625,36.1328125,3.41796875,0.0
104053.512658333,125.0,644.04296875,79.58984375,1.953125,0.0
104053.516564583,144.04296875,864.2578125,45.8984375,44.43359375,0.0
104053.520470833,-49.8046875,-143.5546875,-2.9296875,55.17578125,0.0
104053.524377083,-143.5546875,-586.42578125,13.671875,18.5546875,0.0
104053.528283333,79.1015625,274.90234375,55.6640625,-23.92578125,0.0
104053.532189583,156.25,476.5625,23.92578125,20.99609375,0.0
104053.536095833,27.34375,-615.234375,-46.38671875,74.21875,0.0
104053.540002083,-165.52734375,-950.1953125,0.9765625,20.5078125,0.0
104053.543908333,16.11328125,-338.37890625,41.015625,-29.296875,0.0
104053.547814583,145.99609375,332.03125,41.50390625,12.6953125,0.0
104053.551720833,81.0546875,458.0078125,44.921875,44.921875,0.0
104053.555627083,-172.36328125,-184.08203125,24.90234375,27.34375,0.0
104053.558576,-42.48046875,-129.8828125,32.2265625,0.48828125,0.0
104053.56248225,155.2734375,428.22265625,33.203125,8.30078125,0.0
104053.5663885,133.7890625,591.30859375,29.296875,35.15625,0.0
104053.57029475,-86.42578125,-9.765625,16.6015625,15.625,0.0
104053.574201,-96.6796875,-316.40625,29.296875,-29.78515625,0.0
104053.57810725,114.2578125,-65.91796875,23.4375,-7.8125,0.0
104053.5820135,138.18359375,114.2578125,29.78515625,43.9453125,0.0
104053.58591975,-53.7109375,165.52734375,54.19921875,45.8984375,0.0
104053.589826,-169.43359375,-294.921875,34.66796875,17.578125,0.0
104053.59373225,48.828125,-326.171875,1.46484375,7.32421875,0.0
104053.5976385,126.46484375,403.3203125,38.0859375,31.73828125,0.0
104053.60154475,30.76171875,385.25390625,42.96875,55.17578125,0.0
104053.627976166,-155.2734375,-750.0,-9.765625,16.11328125,0.0
104053.631882416,29.78515625,-526.3671875,20.01953125,-30.2734375,0.0
104053.635788666,155.76171875,618.65234375,61.03515625,7.32421875,0.0
104053.639694916,127.9296875,774.4140625,44.921875,44.921875,0.0
104053.643601166,-107.91015625,-253.90625,0.0,25.87890625,0.0
104053.647507416,-62.98828125,-785.15625,-10.7421875,-8.30078125,0.0
104053.651413666,121.58203125,197.75390625,40.52734375,-1.46484375,0.0
104053.655319916,139.16015625,794.921875,59.08203125,36.1328125,0.0
104053.659226166,-78.125,-321.2890625,-14.16015625,54.6875,0.0
104053.663132416,-129.8828125,-904.78515625,-18.5546875,13.671875,0.0
104053.667038666,95.21484375,229.00390625,77.63671875,-17.08984375,0.0
104053.670944916,144.04296875,928.7109375,76.171875,21.484375,0.0
104053.648523916,5.37109375,136.23046875,1.46484375,47.8515625,0.0
104053.652430166,-98.6328125,-585.9375,0.0,14.16015625,0.0
104053.656336416,80.56640625,-105.95703125,34.66796875,-26.3671875,0.0
104053.660242666,152.83203125,656.25,55.6640625,1.46484375,0.0
104053.664148916,79.58984375,314.453125,26.3671875,44.43359375,0.0
104053.668055166,-140.13671875,-854.00390625,-5.859375,22.4609375,0.0
104053.671961416,14.16015625,-456.54296875,39.0625,-21.484375,0.0
104053.675867666,163.0859375,767.08984375,71.2890625,8.7890625,0.0
104053.679773916,139.16015625,345.703125,12.20703125,67.3828125,0.0
104053.683680166,-97.16796875,-759.765625,4.39453125,59.08203125,0.0
104053.687586416,-71.2890625,-307.6171875,72.265625,0.9765625,0.0
104053.691492666,117.1875,490.234375,64.453125,-8.7890625,0.0
104053.68867625,123.53515625,416.9921875,24.90234375,35.15625,0.0
104053.6925825,-76.66015625,-45.41015625,25.87890625,38.57421875,0.0
104053.69648875,-125.9765625,-266.11328125,34.1796875,10.25390625,0.0
104053.700395,115.72265625,221.19140625,26.3671875,6.34765625,0.0
104053.70430125,181.15234375,457.51953125,13.671875,39.0625,0.0
104053.7082075,13.18359375,-94.23828125,-4.8828125,69.82421875,0.0
104053.71211375,-173.828125,-769.04296875,2.9296875,32.2265625,0.0
104053.71602,31.73828125,-410.64453125,11.23046875,-10.25390625,0.0
104053.71992625,152.34375,-296.38671875,-13.18359375,47.8515625,0.0
104053.7238325,87.40234375,34.66796875,43.9453125,78.125,0.0
104053.72773875,-140.625,-150.390625,59.5703125,31.73828125,0.0
104053.731645,-14.16015625,-298.828125,24.90234375,-12.20703125,0.0
104053.778234625,171.875,342.7734375,26.3671875,8.7890625,0.0
104053.764223458,150.390625,679.19921875,42.96875,41.015625,0.0
104053.768129708,-119.140625,-61.03515625,13.671875,25.87890625,0.0
104053.772035958,-99.12109375,-533.69140625,4.8828125,-8.7890625,0.0
104053.775942208,123.046875,259.27734375,48.828125,-11.71875,0.0
104053.779848458,131.8359375,521.97265625,43.45703125,35.64453125,0.0
104053.783754708,-50.78125,-263.671875,1.953125,47.36328125,0.0
104053.787660958,-118.1640625,-994.140625,-20.99609375,7.32421875,0.0
104053.791567208,102.5390625,-459.47265625,18.5546875,-9.765625,0.0
104053.795473458,173.33984375,783.203125,71.77734375,27.83203125,0.0
104053.799379708,63.96484375,495.60546875,33.203125,70.80078125,0.0
104053.803285958,-124.0234375,-689.453125,-13.18359375,46.875,0.0
104053.780882041,61.03515625,-184.08203125,23.92578125,-9.27734375,0.0
104053.784788291,179.19921875,866.2109375,55.17578125,-3.90625,0.0
104053.788694541,103.02734375,583.0078125,20.99609375,28.80859375,0.0
104053.792600791,-139.16015625,-556.15234375,-9.27734375,7.32421875,0.0
104053.796507041,-18.5546875,-375.9765625,19.53125,-33.69140625,0.0
104053.800413291,165.0390625,375.0,30.76171875,2.9296875,0.0
104053.804319541,152.34375,243.65234375,6.8359375,53.7109375,0.0
104053.808225791,-71.77734375,-791.50390625,-60.05859375,57.12890625,0.0
104053.812132041,-82.51953125,-877.9296875,-9.765625,7.8125,0.0
104053.816038291,116.69921875,276.85546875,64.453125,-1.953125,0.0
104053.819944541,142.578125,554.19921875,41.9921875,48.33984375,0.0
104053.823850791,-14.6484375,-76.171875,29.296875,57.12890625,0.0
104053.82568725,-134.27734375,-410.64453125,34.66796875,18.06640625,0.0
104053.8295935,71.2890625,256.8359375,53.7109375,-2.9296875,0.0
104053.83349975,151.3671875,625.48828125,35.64453125,37.59765625,0.0
104053.837406,61.5234375,234.86328125,13.671875,60.05859375,0.0
104053.84131225,-131.8359375,-362.3046875,7.32421875,25.390625,0.0
104053.8452185,39.0625,-232.421875,2.9296875,-25.390625,0.0
104053.84912475,180.6640625,22.94921875,-14.6484375,9.27734375,0.0
104053.853031,117.1875,-281.25,-6.8359375,72.75390625,0.0
104053.85693725,-137.20703125,-381.34765625,34.1796875,45.41015625,0.0
104053.8608435,-55.17578125,-214.35546875,31.73828125,-24.4140625,0.0
104053.86474975,129.8828125,252.44140625,19.53125,0.0,0.0
104053.868656,123.046875,672.8515625,41.9921875,57.12890625,0.0
104053.899023791,-92.7734375,15.13671875,18.06640625,50.29296875,0.0
104053.902930041,-132.8125,-769.04296875,-18.06640625,16.11328125,0.0
104053.906836291,81.54296875,-122.0703125,6.34765625,11.71875,0.0
104053.910742541,125.9765625,736.81640625,35.64453125,48.33984375,0.0
104053.914648791,-26.3671875,361.81640625,12.6953125,64.453125,0.0
104053.918555041,-162.59765625,-783.69140625,-33.203125,21.97265625,0.0
104053.922461291,52.734375,-944.3359375,-31.73828125,1.953125,0.0
104053.926367541,135.25390625,119.62890625,38.0859375,23.4375,0.0
104053.930273791,48.828125,261.23046875,38.57421875,41.50390625,0.0
104053.934180041,-161.1328125,-563.96484375,4.8828125,15.13671875,0.0
104053.938086291,-17.08984375,-313.4765625,21.97265625,-24.4140625,0.0
104053.941992541,140.13671875,744.140625,61.5234375,7.8125,0.0
104053.944579583,105.95703125,866.69921875,43.9453125,46.875,0.0
104053.948485833,-134.765625,-289.0625,-16.11328125,31.73828125,0.0
104053.952392083,-82.51953125,-495.60546875,8.30078125,-3.41796875,0.0
104053.956298333,126.953125,363.28125,41.50390625,19.53125,0.0
104053.960204583,145.01953125,629.8828125,44.921875,57.12890625,0.0
104053.964110833,-72.265625,-302.734375,-10.7421875,50.78125,0.0
104053.968017083,-150.390625,-930.17578125,-23.92578125,4.8828125,0.0
104053.971923333,74.70703125,134.27734375,45.41015625,-27.83203125,0.0
104053.975829583,138.671875,875.9765625,51.7578125,3.90625,0.0
104053.979735833,1.46484375,-83.984375,-11.71875,42.48046875,0.0
104053.983642083,-163.0859375,-814.94140625,-0.9765625,14.6484375,0.0
104053.987548333,40.52734375,118.1640625,55.17578125,-20.5078125,0.0
104054.0314965,147.4609375,769.04296875,40.0390625,15.625,0.0
104054.017481875,81.0546875,236.81640625,0.0,48.33984375,0.0
104054.021388125,-143.5546875,-448.2421875,0.0,20.5078125,0.0
104054.025294375,-21.484375,-56.640625,35.15625,-9.765625,0.0
104054.029200625,122.55859375,611.328125,34.1796875,19.04296875,0.0
104054.033106875,96.6796875,124.51171875,-16.6015625,61.03515625,0.0
104054.037013125,-127.9296875,-685.546875,-21.484375,42.96875,0.0
104054.040919375,-114.74609375,-612.3046875,17.08984375,-13.18359375,0.0
104054.044825625,102.05078125,-2.44140625,21.484375,-22.94921875,0.0
104054.048731875,123.046875,289.0625,30.2734375,20.01953125,0.0
104054.052638125,-59.5703125,-3.41796875,28.80859375,39.0625,0.0
104054.056544375,-136.71875,-282.71484375,31.25,1.953125,0.0
104054.033779041,87.890625,19.53125,18.06640625,-14.6484375,0.0
104054.037685291,145.99609375,112.79296875,10.7421875,30.76171875,0.0
104054.041591541,26.3671875,198.73046875,36.62109375,54.19921875,0.0
104054.045497791,-142.578125,-341.30859375,20.99609375,30.2734375,0.0
104054.049404041,18.5546875,-284.1796875,4.39453125,-9.765625,0.0
104054.053310291,134.765625,223.6328125,5.859375,15.13671875,0.0
104054.057216541,89.84375,270.99609375,29.296875,38.0859375,0.0
104054.061122791,-146.484375,-219.7265625,30.76171875,-0.48828125,0.0
104054.065029041,-36.1328125,-758.7890625,-14.6484375,-36.1328125,0.0
104054.068935291,140.625,-180.17578125,11.71875,-2.9296875,0.0
104054.072841541,119.140625,768.5546875,51.7578125,38.57421875,0.0
104054.076747791,-118.1640625,24.90234375,-4.8828125,35.64453125,0.0
104054.082826875,-117.67578125,-777.83203125,-20.01953125,18.5546875,0.0
104054.086733125,107.91015625,195.3125,36.1328125,3.90625,0.0
104054.090639375,123.046875,943.359375,59.08203125,21.484375,0.0
104054.094545625,-38.0859375,171.875,17.08984375,32.2265625,0.0
104054.098451875,-154.296875,-679.6875,-5.859375,-7.8125,0.0
104054.102358125,62.5,-211.42578125,22.94921875,-22.4609375,0.0
104054.106264375,168.9453125,537.59765625,46.38671875,12.20703125,0.0
104054.110170625,60.546875,304.19921875,10.25390625,46.38671875,0.0
104054.114076875,-147.94921875,-810.546875,-58.10546875,40.52734375,0.0
104054.117983125,8.30078125,-256.34765625,27.83203125,-18.06640625,0.0
104054.121889375,144.53125,861.328125,84.9609375,11.71875,0.0
104054.125795625,104.00390625,541.015625,37.109375,67.3828125,0.0
104054.131354125,-149.90234375,-443.84765625,6.8359375,43.9453125,0.0
104054.135260375,-66.89453125,-206.54296875,31.25,-11.23046875,0.0
104054.139166625,139.16015625,703.125,40.52734375,-2.9296875,0.0
104054.143072875,127.9296875,622.0703125,6.8359375,56.15234375,0.0
104054.146979125,-102.5390625,-196.2890625,-14.6484375,51.26953125,0.0
104054.150885375,-144.53125,-689.94140625,-14.16015625,-11.23046875,0.0
104054.154791625,75.68359375,12.6953125,15.13671875,-20.01953125,0.0
104054.158697875,115.234375,250.48828125,8.7890625,18.5546875,0.0
104054.162604125,-41.015625,-615.72265625,-13.18359375,44.921875,0.0
104054.166510375,-166.9921875,-549.31640625,25.390625,-0.48828125,0.0
104054.170416625,53.22265625,193.359375,34.1796875,-31.25,0.0
104054.174322875,152.34375,505.37109375,10.25390625,23.4375,0.0
104054.197420958,55.17578125,306.15234375,3.90625,46.38671875,0.0
104054.183498083,-162.59765625,-372.55859375,0.0,1.953125,0.0
104054.187404333,3.41796875,-402.34375,-10.25390625,-32.71484375,0.0
104054.191310583,141.11328125,309.08203125,9.27734375,12.20703125,0.0
104054.195216833,108.3984375,647.94921875,27.83203125,69.82421875,0.0
104054.199123083,-112.79296875,-320.3125,-10.7421875,48.33984375,0.0
104054.203029333,-44.43359375,-794.921875,-14.6484375,0.0,0.0
104054.206935583,145.01953125,-561.5234375,-19.53125,22.4609375,0.0
104054.210841833,125.0,16.6015625,26.85546875,50.78125,0.0
104054.214748083,-72.75390625,95.21484375,47.36328125,45.8984375,0.0
104054.218654333,-137.6953125,-432.12890625,15.625,15.13671875,0.0
104054.222560583,80.078125,92.28515625,22.4609375,-22.94921875,0.0
104054.227665,143.06640625,902.34375,42.96875,8.30078125,0.0
104054.23157125,-12.6953125,499.51171875,14.6484375,42.48046875,0.0
104054.2354775,-177.734375,-544.43359375,-22.4609375,8.7890625,0.0
104054.23938375,19.04296875,-121.09375,16.6015625,-32.71484375,0.0
104054.24329,133.7890625,709.9609375,27.34375,21.484375,0.0
104054.24719625,81.54296875,249.0234375,-8.7890625,71.77734375,0.0
104054.2511025,-143.06640625,-846.19140625,-39.0625,39.55078125,0.0
104054.25500875,-23.4375,-662.109375,-0.48828125,-13.671875,0.0
104054.258915,134.27734375,606.4453125,61.03515625,2.9296875,0.0
104054.26282125,112.3046875,787.109375,37.59765625,50.29296875,0.0
104054.2667275,-123.046875,-346.6796875,-15.13671875,32.71484375,0.0
104054.27063375,-94.7265625,-427.24609375,13.18359375,-5.859375,0.0
104054.2744615,105.46875,614.74609375,50.78125,-2.9296875,0.0
104054.27836775,121.09375,805.17578125,29.78515625,39.0625,0.0
104054.282274,-55.17578125,-213.8671875,-8.30078125,56.15234375,0.0
104054.28618025,-143.5546875,-568.359375,7.32421875,22.94921875,0.0
104054.2900865,81.0546875,270.01953125,28.80859375,-4.8828125,0.0
104054.29399275,151.85546875,448.73046875,-5.37109375,18.06640625,0.0
104054.297899,-4.39453125,-613.28125,-62.5,56.15234375,0.0
104054.30180525,-181.15234375,-1000.0,-30.2734375,22.4609375,0.0
104054.3057115,25.87890625,-348.6328125,19.53125,-24.4140625,0.0
104054.30961775,155.2734375,278.3203125,32.2265625,0.48828125,0.0
104054.313524,110.3515625,281.73828125,44.43359375,42.48046875,0.0
104054.31743025,-135.25390625,-320.80078125,33.69140625,32.2265625,0.0
104054.321793958,-32.2265625,-150.390625,41.9921875,-14.6484375,0.0
104054.325700208,145.01953125,504.8828125,37.109375,-2.44140625,0.0
104054.329606458,111.81640625,595.21484375,32.71484375,47.8515625,0.0
104054.333512708,-105.46875,-2.9296875,19.53125,37.109375,0.0
104054.337418958,-99.609375,-298.33984375,10.25390625,-10.7421875,0.0
104054.341325208,114.74609375,-14.16015625,7.8125,-11.23046875,0.0
104054.345231458,141.6015625,205.56640625,28.80859375,26.85546875,0.0
104054.349137708,-30.76171875,145.01953125,41.015625,49.8046875,0.0
104054.353043958,-139.6484375,-352.5390625,20.99609375,14.6484375,0.0
104054.356950208,72.75390625,-396.484375,1.953125,-10.25390625,0.0
104054.360856458,147.4609375,107.421875,27.83203125,35.15625,0.0
104054.364762708,48.828125,418.9453125,56.15234375,48.828125,0.0
104054.363276583,-159.66796875,-324.21875,22.94921875,15.13671875,0.0
104054.367182833,19.04296875,-379.8828125,10.25390625,-18.06640625,0.0
104054.371089083,178.7109375,552.24609375,38.57421875,20.99609375,0.0
104054.374995333,109.375,729.00390625,41.015625,58.59375,0.0
104054.378901583,-131.8359375,-270.01953125,2.44140625,35.64453125,0.0
104054.382807833,-37.109375,-773.92578125,-5.859375,3.90625,0.0
104054.386714083,146.484375,65.4296875,35.64453125,16.6015625,0.0
104054.390620333,142.578125,646.484375,56.640625,59.08203125,0.0
104054.394526583,-63.96484375,-301.26953125,-3.90625,57.12890625,0.0
104054.398432833,-106.93359375,-912.59765625,-24.4140625,13.18359375,0.0
104054.402339083,98.6328125,196.2890625,62.5,-16.6015625,0.0
104054.406245333,143.5546875,951.171875,81.54296875,20.99609375,0.0
104054.409773833,-9.765625,120.1171875,23.92578125,47.36328125,0.0
104054.413680083,-140.13671875,-681.640625,18.06640625,0.9765625,0.0
104054.417586333,73.2421875,87.890625,61.03515625,-25.87890625,0.0
104054.421492583,171.875,876.953125,68.359375,22.4609375,0.0
104054.425398833,73.73046875,315.4296875,15.13671875,51.7578125,0.0
104054.429305083,-152.83203125,-869.140625,-9.765625,24.4140625,0.0
104054.433211333,8.30078125,-567.3828125,44.921875,-11.71875,0.0
104054.437117583,155.76171875,647.94921875,79.58984375,10.7421875,0.0
104054.441023833,118.1640625,288.0859375,25.390625,61.5234375,0.0
104054.444930083,-131.8359375,-902.34375,7.32421875,42.96875,0.0
104054.448836333,-80.078125,-374.51171875,71.77734375,-28.80859375,0.0
104054.452742583,137.20703125,591.796875,77.63671875,-7.32421875,0.0
104054.455147416,137.20703125,521.97265625,45.41015625,42.96875,0.0
104054.459053666,-70.80078125,-46.38671875,25.87890625,25.87890625,0.0
104054.462959916,-101.5625,-312.98828125,35.15625,-14.6484375,0.0
104054.466866166,120.60546875,45.41015625,40.0390625,-5.859375,0.0
104054.470772416,150.87890625,407.2265625,44.43359375,41.015625,0.0
104054.474678666,10.25390625,-91.796875,31.25,62.5,0.0
104054.478584916,-152.83203125,-647.94921875,37.59765625,14.16015625,0.0
104054.482491166,46.875,-145.01953125,44.43359375,-14.6484375,0.0
104054.486397416,157.71484375,-243.65234375,3.41796875,37.59765625,0.0
104054.490303666,81.54296875,39.55078125,50.78125,39.0625,0.0
104054.494209916,-155.76171875,-117.1875,58.10546875,3.41796875,0.0
104054.498116166,-17.578125,-272.94921875,36.62109375,-27.34375,0.0
104054.502366083,158.203125,431.640625,55.6640625,7.8125,0.0
104054.506272333,128.41796875,787.109375,70.80078125,52.734375,0.0
104054.510178583,-103.02734375,3.90625,40.0390625,32.2265625,0.0
104054.514084833,-66.89453125,-474.609375,29.296875,-2.44140625,0.0
104054.517991083,130.859375,298.828125,65.4296875,-2.44140625,0.0
104054.521897333,130.37109375,452.63671875,56.640625,46.875,0.0
104054.525803583,-44.921875,-268.5546875,30.76171875,56.640625,0.0
104054.529709833,-143.06640625,-983.88671875,11.71875,9.765625,0.0
104054.533616083,73.2421875,-479.98046875,42.48046875,-15.625,0.0
104054.537522333,151.3671875,786.62109375,95.21484375,19.04296875,0.0
104054.541428583,21.484375,455.56640625,51.7578125,63.96484375,0.0
104054.545334833,-145.99609375,-664.55078125,6.34765625,36.1328125,0.0
104054.548551,56.15234375,-115.234375,52.24609375,-16.6015625,0.0
104054.55245725,167.48046875,867.67578125,88.37890625,9.765625,0.0
104054.5563635,106.93359375,578.125,50.78125,51.7578125,0.0
104054.56026975,-123.53515625,-601.07421875,7.8125,41.015625,0.0
104054.564176,-2.9296875,-379.8828125,34.1796875,-8.7890625,0.0
104054.56808225,195.3125,374.0234375,41.9921875,16.11328125,0.0
104054.5719885,167.96875,248.046875,26.3671875,72.75390625,0.0
104054.57589475,-67.3828125,-731.93359375,-21.97265625,74.21875,0.0
104054.579801,-83.0078125,-895.99609375,20.01953125,7.32421875,0.0
104054.58370725,115.234375,37.59765625,72.75390625,2.44140625,0.0
104054.5876135,155.2734375,598.14453125,68.359375,49.31640625,0.0
104054.59151975,-12.6953125,76.171875,38.0859375,55.17578125,0.0
104054.597980875,-116.69921875,-554.6875,20.5078125,11.71875,0.0
104054.601887125,107.421875,136.23046875,58.59375,-26.3671875,0.0
104054.605793375,164.55078125,680.6640625,64.453125,32.2265625,0.0
104054.609699625,44.921875,274.90234375,41.50390625,59.5703125,0.0
104054.613605875,-143.06640625,-350.09765625,32.2265625,21.484375,0.0
104054.617512125,43.9453125,-273.4375,23.4375,-6.8359375,0.0
104054.621418375,174.8046875,42.48046875,15.625,25.390625,0.0
104054.625324625,123.046875,-77.63671875,34.1796875,53.7109375,0.0
104054.629230875,-121.58203125,-270.5078125,46.875,10.25390625,0.0
104054.633137125,-60.05859375,-192.87109375,32.71484375,-26.3671875,0.0
104054.637043375,128.90625,140.625,21.484375,-6.8359375,0.0
104054.640949625,133.30078125,298.33984375,33.203125,31.73828125,0.0
104054.645406333,-71.2890625,-53.7109375,46.875,29.78515625,0.0
104054.649312583,-121.09375,-377.9296875,39.55078125,-15.625,0.0
104054.653218833,79.1015625,67.3828125,35.64453125,-23.4375,0.0
104054.657125083,125.9765625,680.17578125,50.78125,13.671875,0.0
104054.661031333,-32.71484375,333.0078125,25.390625,36.62109375,0.0
104054.664937583,-163.57421875,-753.90625,-17.08984375,10.7421875,0.0
104054.668843833,59.08203125,-928.22265625,-17.08984375,-28.3203125,0.0
104054.672750083,155.76171875,179.19921875,38.0859375,-13.671875,0.0
104054.676656333,46.875,243.65234375,32.71484375,18.5546875,0.0
104054.680562583,-166.015625,-615.72265625,13.671875,7.8125,0.0
104054.684468833,-0.48828125,-286.62109375,39.0625,-14.6484375,0.0
104054.688375083,135.7421875,685.546875,57.12890625,5.37109375,0.0
104054.7164885,112.79296875,812.5,38.0859375,38.0859375,0.0
104054.72039475,-119.140625,-362.79296875,-20.5078125,16.11328125,0.0
104054.724301,-81.0546875,-676.26953125,2.9296875,-42.48046875,0.0
104054.72820725,125.0,481.4453125,67.3828125,-38.0859375,0.0
104054.7321135,118.65234375,878.90625,65.91796875,9.765625,0.0
104054.73601975,-98.14453125,-260.25390625,-4.8828125,24.4140625,0.0
104054.739926,-160.15625,-884.765625,0.0,-17.578125,0.0
104054.74383225,87.890625,240.234375,82.03125,-39.55078125,0.0
104054.7477385,152.34375,958.0078125,74.21875,18.5546875,0.0
104054.75164475,0.0,-8.7890625,-1.953125,62.98828125,0.0
104054.755551,-151.3671875,-803.7109375,-5.37109375,22.4609375,0.0
104054.75945725,67.87109375,17.578125,40.52734375,-17.578125,0.0
104054.739498541,168.9453125,712.40234375,44.43359375,17.578125,0.0
104054.743404791,80.078125,232.91015625,23.4375,50.29296875,0.0
104054.747311041,-152.83203125,-500.0,38.57421875,20.5078125,0.0
104054.751217291,-19.04296875,-157.2265625,66.40625,-22.94921875,0.0
104054.755123541,143.06640625,448.73046875,53.7109375,12.6953125,0.0
104054.759029791,126.46484375,143.06640625,24.4140625,56.15234375,0.0
104054.762936041,-123.046875,-637.20703125,5.37109375,25.390625,0.0
104054.766842291,-109.86328125,-548.828125,31.25,-31.25,0.0
104054.770748541,112.79296875,-41.50390625,26.85546875,-23.92578125,0.0
104054.774654791,132.8125,-282.71484375,5.859375,37.59765625,0.0
104054.778561041,-43.45703125,-309.08203125,44.921875,40.52734375,0.0
104054.782467291,-135.25390625,-294.921875,58.10546875,-0.9765625,0.0
104054.787961208,67.3828125,53.7109375,42.96875,-10.25390625,0.0
104054.791867458,138.671875,494.62890625,41.9921875,29.296875,0.0
104054.795773708,23.92578125,340.8203125,28.3203125,48.33984375,0.0
104054.799679958,-137.20703125,-318.359375,12.20703125,6.34765625,0.0
104054.803586208,40.52734375,-265.13671875,15.625,-36.1328125,0.0
104054.807492458,145.99609375,233.88671875,35.15625,14.6484375,0.0
104054.811398708,82.51953125,110.3515625,34.66796875,55.17578125,0.0
104054.815304958,-160.64453125,-602.05078125,12.20703125,18.5546875,0.0
104054.819211208,-41.015625,-867.1875,-3.41796875,-16.6015625,0.0
104054.823117458,125.48828125,-207.03125,35.64453125,-10.25390625,0.0
104054.827023708,120.60546875,711.42578125,81.0546875,27.83203125,0.0
104054.830929958,-84.47265625,-20.5078125,26.3671875,31.73828125,0.0
104054.834581208,-96.6796875,-705.078125,11.23046875,-14.6484375,0.0
104054.838487458,118.1640625,285.15625,58.10546875,-24.4140625,0.0
104054.842393708,161.1328125,949.21875,65.4296875,20.5078125,0.0
104054.846299958,-10.7421875,182.12890625,30.2734375,54.19921875,0.0
104054.850206208,-131.8359375,-717.7734375,18.5546875,10.7421875,0.0
104054.854112458,99.12109375,-264.6484375,36.1328125,-20.5078125,0.0
104054.858018708,159.66796875,573.2421875,64.94140625,20.01953125,0.0
104054.861924958,35.64453125,350.5859375,41.50390625,59.5703125,0.0
104054.865831208,-142.578125,-792.48046875,-29.296875,55.17578125,0.0
104054.869737458,42.48046875,-377.9296875,48.33984375,-7.8125,0.0
104054.873643708,174.31640625,599.609375,103.02734375,12.20703125,0.0
104054.877549958,115.234375,510.7421875,64.453125,73.2421875,0.0
104054.897817625,-118.65234375,-375.0,43.9453125,47.8515625,0.0
104054.901723875,-39.55078125,-238.28125,67.3828125,-11.71875,0.0
104054.891362708,140.13671875,629.39453125,76.171875,11.23046875,0.0
104054.895268958,136.23046875,639.16015625,51.7578125,58.10546875,0.0
104054.899175208,-69.3359375,-189.453125,23.92578125,46.875,0.0
104054.903081458,-85.9375,-688.96484375,28.3203125,7.32421875,0.0
104054.906987708,129.39453125,-11.71875,62.01171875,4.8828125,0.0
104054.910893958,159.66796875,222.65625,47.8515625,60.05859375,0.0
104054.914800208,-8.30078125,-451.66015625,34.1796875,61.5234375,0.0
104054.918706458,-145.99609375,-479.98046875,71.2890625,11.23046875,0.0
104054.922612708,61.5234375,186.5234375,72.265625,-8.30078125,0.0
104054.926518958,150.87890625,457.03125,36.62109375,26.85546875,0.0
104054.947269625,59.5703125,128.90625,30.2734375,62.98828125,0.0
104054.930160541,-141.6015625,-393.06640625,43.9453125,26.3671875,0.0
104054.934066791,22.4609375,-129.39453125,47.36328125,-25.390625,0.0
104054.937973041,162.109375,453.125,48.828125,2.9296875,0.0
104054.941879291,122.55859375,600.09765625,62.5,65.4296875,0.0
104054.945785541,-116.2109375,-328.125,23.4375,56.15234375,0.0
104054.949691791,-67.87109375,-759.765625,11.23046875,-5.37109375,0.0
104054.953598041,136.71875,-527.34375,2.9296875,7.8125,0.0
104054.957504291,153.80859375,29.78515625,37.59765625,52.734375,0.0
104054.961410541,-61.5234375,-4.39453125,48.828125,44.43359375,0.0
104054.965316791,-140.625,-539.0625,37.109375,-11.23046875,0.0
104054.969223041,92.28515625,93.26171875,68.359375,-26.3671875,0.0
104054.987177666,159.66796875,856.93359375,87.40234375,36.1328125,0.0
104054.991083916,15.13671875,448.73046875,61.03515625,67.87109375,0.0
104054.980996916,-128.90625,-635.25390625,26.3671875,31.73828125,0.0
104054.984903166,64.453125,-390.625,40.0390625,-7.32421875,0.0
104054.988809416,143.06640625,716.30859375,75.68359375,23.92578125,0.0
104054.992715666,71.77734375,406.73828125,45.8984375,59.5703125,0.0
104054.996621916,-131.8359375,-807.6171875,-6.8359375,43.9453125,0.0
104055.000528166,-0.48828125,-661.62109375,31.25,4.8828125,0.0
104055.004434416,166.015625,653.80859375,102.05078125,11.71875,0.0
104055.008340666,149.4140625,882.8125,83.0078125,58.10546875,0.0
104055.012246916,-91.30859375,-307.12890625,32.2265625,45.8984375,0.0
104055.016153166,-66.40625,-428.7109375,46.875,-22.4609375,0.0
104055.017273916,133.7890625,438.96484375,62.5,-15.13671875,0.0
104055.021180166,135.7421875,710.9375,51.7578125,39.55078125,0.0
104055.025086416,-52.734375,-119.140625,22.4609375,59.08203125,0.0
104055.028992666,-135.7421875,-530.2734375,38.57421875,12.6953125,0.0
104055.032898916,89.35546875,321.2890625,77.63671875,-16.6015625,0.0
104055.036805166,161.62109375,485.3515625,55.17578125,48.33984375,0.0
104055.040711416,17.578125,-574.21875,-2.9296875,91.30859375,0.0
104055.044617666,-173.828125,-1000.0,27.34375,18.5546875,0.0
104055.048523916,24.90234375,-270.99609375,67.87109375,-44.43359375,0.0
104055.052430166,150.87890625,521.484375,72.75390625,3.41796875,0.0
104055.056336416,94.7265625,403.80859375,77.63671875,58.59375,0.0
104055.060242666,-125.0,-290.0390625,63.4765625,33.69140625,0.0
104055.05930875,-15.625,-112.3046875,68.84765625,-14.6484375,0.0
104055.063215,144.04296875,534.66796875,74.70703125,-5.859375,0.0
104055.06712125,125.48828125,592.7734375,67.87109375,27.83203125,0.0
104055.0710275,-103.515625,-63.96484375,50.29296875,17.08984375,0.0
104055.07493375,-113.76953125,-266.11328125,51.7578125,-32.2265625,0.0
104055.07884,104.98046875,-23.4375,34.1796875,-2.44140625,0.0
104055.08274625,131.8359375,70.80078125,37.59765625,59.5703125,0.0
104055.0866525,-32.71484375,64.94140625,52.24609375,40.0390625,0.0
104055.09055875,-123.046875,-600.09765625,22.94921875,-5.859375,0.0
104055.094465,85.44921875,-360.3515625,30.76171875,-18.5546875,0.0
104055.09837125,159.66796875,583.984375,77.1484375,14.6484375,0.0
104055.1022775,68.359375,564.94140625,81.54296875,52.24609375,0.0
104055.129371541,-130.37109375,-386.23046875,47.8515625,32.2265625,0.0
104055.133277791,27.83203125,-413.57421875,46.875,-8.7890625,0.0
104055.137184041,150.390625,570.80078125,78.125,16.11328125,0.0
104055.141090291,114.2578125,754.39453125,75.68359375,60.05859375,0.0
104055.144996541,-123.53515625,-271.484375,26.85546875,45.41015625,0.0
104055.148902791,-47.8515625,-819.3359375,2.44140625,-11.23046875,0.0
104055.152809041,132.8125,99.609375,51.26953125,-5.859375,0.0
104055.156715291,142.578125,666.015625,77.1484375,38.57421875,0.0
104055.160621541,-80.078125,-405.2734375,16.11328125,34.1796875,0.0
104055.164527791,-126.46484375,-933.59375,5.37109375,3.41796875,0.0
104055.168434041,118.65234375,141.6015625,83.0078125,1.46484375,0.0
104055.172340291,155.2734375,597.16796875,77.63671875,43.9453125,0.0
104055.150867166,-13.18359375,-156.73828125,39.0625,63.4765625,0.0
104055.154773416,-130.859375,-646.97265625,61.03515625,26.3671875,0.0
104055.158679666,93.26171875,82.51953125,88.37890625,-21.97265625,0.0
104055.162585916,184.08203125,781.25,83.984375,16.6015625,0.0
104055.166492166,83.984375,318.84765625,42.96875,67.87109375,0.0
104055.170398416,-136.23046875,-843.26171875,-5.37109375,28.80859375,0.0
104055.174304666,19.04296875,-575.1953125,36.62109375,-15.625,0.0
104055.178210916,178.22265625,665.0390625,91.30859375,16.11328125,0.0
104055.182117166,131.8359375,259.27734375,37.109375,59.5703125,0.0
104055.186023416,-112.3046875,-857.421875,26.3671875,40.0390625,0.0
104055.189929666,-60.546875,-292.96875,99.609375,-19.04296875,0.0
104055.193835916,142.578125,590.33203125,89.35546875,-11.71875,0.0
104055.19433475,149.90234375,387.6953125,50.29296875,44.921875,0.0
104055.198241,-62.01171875,-332.51953125,38.57421875,41.015625,0.0
104055.20214725,-126.953125,-550.29296875,51.7578125,-10.7421875,0.0
104055.2060535,94.7265625,224.12109375,73.73046875,-11.71875,0.0
104055.20995975,149.90234375,537.59765625,58.59375,39.0625,0.0
104055.213866,1.46484375,-157.71484375,23.92578125,59.5703125,0.0
104055.21777225,-156.25,-771.97265625,30.2734375,25.87890625,0.0
104055.2216785,57.6171875,-324.21875,50.78125,-12.20703125,0.0
104055.22558475,171.875,-280.76171875,32.71484375,33.203125,0.0
104055.229491,73.2421875,36.1328125,76.66015625,42.96875,0.0
104055.23339725,-156.25,-159.1796875,74.21875,0.9765625,0.0
104055.2373035,-15.13671875,-300.29296875,55.17578125,-31.25,0.0
104055.240197916,133.30078125,502.9296875,91.30859375,1.46484375,0.0
104055.244104166,99.12109375,808.59375,93.75,49.8046875,0.0
104055.248010416,-114.74609375,15.13671875,54.6875,42.48046875,0.0
104055.251916666,-78.125,-535.64453125,39.0625,0.0,0.0
104055.255822916,119.140625,12.6953125,50.29296875,2.44140625,0.0
104055.259729166,154.296875,403.80859375,56.15234375,48.33984375,0.0
104055.263635416,-40.52734375,-207.51953125,44.43359375,48.33984375,0.0
104055.267541666,-145.5078125,-947.75390625,23.92578125,1.46484375,0.0
104055.271447916,68.84765625,-521.97265625,52.24609375,-21.97265625,0.0
104055.275354166,137.20703125,709.47265625,107.421875,16.6015625,0.0
104055.279260416,16.6015625,476.5625,61.5234375,58.10546875,0.0
104055.283166666,-161.1328125,-666.9921875,20.99609375,25.87890625,0.0
104055.3145435,31.25,-117.67578125,75.68359375,-31.25,0.0
104055.31844975,159.1796875,877.44140625,99.12109375,-5.859375,0.0
104055.322356,89.84375,625.9765625,62.01171875,58.59375,0.0
104055.32626225,-137.20703125,-496.09375,38.57421875,31.25,0.0
104055.3301685,-17.578125,-322.75390625,66.40625,-29.296875,0.0
104055.33407475,150.87890625,374.0234375,62.98828125,-2.9296875,0.0
104055.337981,134.27734375,206.54296875,36.1328125,55.17578125,0.0
104055.34188725,-79.1015625,-782.71484375,-30.2734375,73.2421875,0.0
104055.3457935,-100.09765625,-872.55859375,21.484375,21.484375,0.0
104055.34969975,97.65625,394.04296875,101.5625,-7.32421875,0.0
104055.353606,135.25390625,764.6484375,63.96484375,30.2734375,0.0
104055.35751225,-32.2265625,-47.36328125,33.69140625,49.8046875,0.0
104055.337499333,-144.53125,-373.046875,52.734375,-2.44140625,0.0
104055.341405583,60.05859375,310.05859375,73.2421875,-41.50390625,0.0
104055.345311833,137.20703125,666.50390625,62.98828125,8.7890625,0.0
104055.349218083,49.31640625,287.59765625,54.19921875,58.59375,0.0
104055.353124333,-138.18359375,-372.55859375,49.8046875,28.80859375,0.0
104055.357030583,24.90234375,-361.81640625,36.1328125,-14.6484375,0.0
104055.360936833,157.2265625,146.97265625,29.78515625,8.7890625,0.0
104055.364843083,113.28125,308.10546875,45.41015625,42.96875,0.0
104055.368749333,-123.046875,-224.12109375,47.36328125,27.34375,0.0
104055.372655583,-32.2265625,-303.7109375,46.38671875,-24.4140625,0.0
104055.376561833,169.921875,-106.4453125,28.80859375,-7.8125,0.0
104055.380468083,157.2265625,-16.6015625,56.15234375,52.24609375,0.0
104055.421354625,-55.17578125,1.953125,75.68359375,56.15234375,0.0
104055.425260875,-86.9140625,-378.90625,43.9453125,-6.8359375,0.0
104055.415238458,127.44140625,-15.13671875,41.015625,-23.92578125,0.0
104055.419144708,178.7109375,697.265625,65.4296875,31.25,0.0
104055.423050958,11.23046875,332.03125,54.6875,48.828125,0.0
104055.426957208,-113.76953125,-740.72265625,17.08984375,31.73828125,0.0
104055.430863458,93.26171875,-954.58984375,6.34765625,17.08984375,0.0
104055.434769708,174.31640625,115.234375,71.77734375,21.97265625,0.0
104055.438675958,84.9609375,219.23828125,63.96484375,43.45703125,0.0
104055.442582208,-125.9765625,-756.34765625,22.94921875,12.20703125,0.0
104055.446488458,18.06640625,-365.234375,60.546875,-36.62109375,0.0
104055.450394708,147.4609375,645.99609375,83.0078125,-2.44140625,0.0
104055.455004416,119.62890625,495.1171875,50.29296875,54.19921875,0.0
104055.458910666,-103.515625,-562.5,11.23046875,40.52734375,0.0
104055.462816916,-40.52734375,-540.0390625,35.15625,-24.4140625,0.0
104055.466723166,153.3203125,525.390625,71.77734375,-17.578125,0.0
104055.470629416,147.4609375,811.03515625,60.05859375,33.69140625,0.0
104055.474535666,-68.359375,-311.03515625,-6.34765625,40.0390625,0.0
104055.478441916,-151.3671875,-884.27734375,-0.9765625,4.39453125,0.0
104055.482348166,74.70703125,235.3515625,75.68359375,3.41796875,0.0
104055.486254416,141.11328125,894.04296875,73.73046875,51.26953125,0.0
104055.490160666,9.27734375,-135.7421875,-3.90625,73.2421875,0.0
104055.494066916,-147.4609375,-838.37890625,10.25390625,8.30078125,0.0
104055.497973166,57.6171875,101.5625,61.5234375,-40.52734375,0.0
104055.475305333,187.5,781.73828125,49.31640625,18.06640625,0.0
104055.479211583,81.54296875,268.06640625,14.16015625,61.03515625,0.0
104055.483117833,-160.15625,-564.94140625,1.953125,21.484375,0.0
104055.487024083,-8.30078125,-390.13671875,22.4609375,-21.484375,0.0
104055.490930333,145.5078125,461.42578125,40.0390625,7.8125,0.0
104055.494836583,123.53515625,155.2734375,13.18359375,57.6171875,0.0
104055.498742833,-94.7265625,-586.42578125,22.94921875,41.015625,0.0
104055.502649083,-73.73046875,-389.16015625,59.08203125,-19.53125,0.0
104055.506555333,129.39453125,44.43359375,40.52734375,-9.27734375,0.0
104055.510461583,147.4609375,-139.16015625,19.04296875,52.734375,0.0
104055.514367833,-40.52734375,-160.15625,48.828125,48.33984375,0.0
104055.518274083,-116.2109375,-256.34765625,47.36328125,18.06640625,0.0
104055.520594333,111.328125,29.296875,39.55078125,14.6484375,0.0
104055.524500583,158.69140625,597.65625,63.96484375,39.55078125,0.0
104055.528406833,30.2734375,397.4609375,47.36328125,48.33984375,0.0
104055.532313083,-135.7421875,-313.96484375,20.99609375,-0.9765625,0.0
104055.536219333,29.78515625,-240.234375,18.06640625,-40.52734375,0.0
104055.540125583,122.0703125,248.53515625,22.94921875,1.46484375,0.0
104055.544031833,60.05859375,146.484375,9.765625,53.22265625,0.0
104055.547938083,-140.625,-592.7734375,-7.32421875,22.94921875,0.0
104055.551844333,-10.25390625,-803.22265625,-7.32421875,-30.76171875,0.0
104055.555750583,126.953125,-232.91015625,28.3203125,-15.625,0.0
104055.559656833,100.5859375,698.2421875,86.42578125,23.4375,0.0
104055.563563083,-120.1171875,115.72265625,41.9921875,18.06640625,0.0
104055.607988125,-120.1171875,-617.1875,0.0,-12.20703125,0.0
104055.591407833,111.328125,298.33984375,37.59765625,-17.08984375,0.0
104055.595314083,154.296875,924.8046875,40.52734375,29.78515625,0.0
104055.599220333,-5.37109375,203.125,-0.9765625,63.4765625,0.0
104055.603126583,-123.046875,-641.11328125,-15.13671875,18.06640625,0.0
104055.607032833,62.98828125,-246.09375,6.8359375,-8.7890625,0.0
104055.610939083,144.53125,526.3671875,31.25,27.34375,0.0
104055.614845333,31.73828125,274.90234375,8.7890625,62.01171875,0.0
104055.618751583,-164.55078125,-875.48828125,-57.12890625,55.6640625,0.0
104055.622657833,6.8359375,-489.74609375,11.23046875,9.765625,0.0
104055.626564083,145.99609375,770.5078125,62.98828125,26.85546875,0.0
104055.630470333,108.3984375,626.953125,15.625,72.75390625,0.0
104055.651121625,-125.0,-463.37890625,-2.9296875,56.640625,0.0
104055.636150833,-35.64453125,-259.27734375,41.9921875,-1.46484375,0.0
104055.640057083,143.5546875,674.31640625,60.05859375,0.48828125,0.0
104055.643963333,118.1640625,660.15625,29.78515625,40.0390625,0.0
104055.647869583,-101.07421875,-186.03515625,-2.9296875,45.8984375,0.0
104055.651775833,-121.58203125,-759.27734375,-10.25390625,2.9296875,0.0
104055.655682083,101.5625,-16.11328125,21.97265625,-19.53125,0.0
104055.659588333,156.73828125,261.23046875,0.9765625,43.45703125,0.0
104055.663494583,-5.859375,-569.82421875,-23.4375,58.59375,0.0
104055.667400833,-144.53125,-511.71875,18.5546875,8.30078125,0.0
104055.671307083,68.359375,105.46875,25.87890625,-4.8828125,0.0
104055.675213333,144.04296875,380.37109375,13.671875,44.43359375,0.0
104055.696112708,48.828125,376.953125,24.90234375,66.40625,0.0
104055.679273708,-138.671875,-186.5234375,19.53125,20.01953125,0.0
104055.683179958,17.08984375,-187.01171875,14.16015625,-25.87890625,0.0
104055.687086208,144.53125,321.77734375,13.671875,0.48828125,0.0
104055.690992458,111.81640625,535.15625,16.11328125,43.9453125,0.0
104055.694898708,-121.58203125,-382.32421875,-21.97265625,45.8984375,0.0
104055.698804958,-77.1484375,-728.515625,-25.87890625,3.41796875,0.0
104055.702711208,113.76953125,-526.3671875,-38.0859375,19.04296875,0.0
104055.706617458,117.1875,-82.03125,1.953125,54.6875,0.0
104055.710523708,-55.17578125,6.34765625,29.296875,47.36328125,0.0
104055.714429958,-99.609375,-504.39453125,10.25390625,19.04296875,0.0
104055.718336208,90.8203125,73.2421875,36.1328125,-7.32421875,0.0
104055.718111958,144.04296875,858.3984375,56.640625,27.83203125,0.0
104055.722018208,-3.90625,224.609375,2.44140625,57.6171875,0.0
104055.725924458,-160.64453125,-784.1796875,-38.0859375,19.04296875,0.0
104055.729830708,54.6875,-150.87890625,8.30078125,-2.44140625,0.0
104055.733736958,158.203125,815.91796875,21.97265625,25.87890625,0.0
104055.737643208,49.8046875,308.59375,-15.625,41.9921875,0.0
104055.741549458,-154.296875,-837.890625,-60.05859375,15.13671875,0.0
104055.745455708,-23.92578125,-638.18359375,-23.4375,-25.87890625,0.0
104055.749361958,118.65234375,616.69921875,59.08203125,2.44140625,0.0
104055.753268208,112.3046875,845.703125,44.43359375,46.875,0.0
104055.757174458,-108.3984375,-417.48046875,-22.94921875,19.04296875,0.0
104055.761080708,-88.8671875,-572.265625,-5.859375,-37.109375,0.0
104055.763589041,114.2578125,533.69140625,30.2734375,-22.4609375,0.0
104055.767495291,130.37109375,822.265625,14.6484375,57.6171875,0.0
104055.771401541,-51.26953125,-135.25390625,-25.87890625,67.87109375,0.0
104055.775307791,-122.0703125,-629.8828125,-13.18359375,-5.859375,0.0
104055.779214041,77.1484375,32.71484375,13.18359375,-41.9921875,0.0
104055.783120291,133.7890625,332.51953125,2.9296875,8.30078125,0.0
104055.787026541,7.8125,-569.3359375,-50.78125,59.08203125,0.0
104055.790932791,-152.83203125,-884.27734375,-16.6015625,10.25390625,0.0
104055.794839041,32.71484375,-246.58203125,9.765625,-45.41015625,0.0
104055.798745291,125.9765625,338.37890625,13.18359375,-6.8359375,0.0
104055.802651541,70.3125,349.609375,31.25,41.015625,0.0
104055.806557791,-136.71875,-224.12109375,23.4375,33.69140625,0.0
104055.809788708,-17.578125,-98.14453125,28.80859375,-10.25390625,0.0
104055.813694958,141.11328125,443.84765625,27.83203125,6.34765625,0.0
104055.817601208,126.953125,550.29296875,38.0859375,52.24609375,0.0
104055.821507458,-81.0546875,4.8828125,29.78515625,46.38671875,0.0
104055.825413708,-83.984375,-199.70703125,26.3671875,9.765625,0.0
104055.829319958,118.65234375,28.3203125,10.25390625,21.484375,0.0
104055.833226208,152.83203125,-94.7265625,3.90625,72.75390625,0.0
104055.837132458,-5.859375,-156.25,23.92578125,54.6875,0.0
