lsl_timestamp,TP9,AF7,AF8,TP10
440696.73801525,-10.25390625,5.37109375,-659.66796875,-2.44140625
440696.7419215,22.4609375,3.90625,-82.03125,4.39453125
440696.74582775,55.17578125,-5.859375,499.51171875,-4.39453125
440696.749734,25.87890625,-7.8125,319.82421875,1.953125
440696.75364025,-3.90625,-10.25390625,-259.27734375,4.39453125
440696.7575465,11.71875,-14.6484375,-447.75390625,-26.3671875
440696.76145275,49.31640625,-8.7890625,96.6796875,-12.20703125
440696.765359,41.50390625,-16.6015625,-193.359375,-3.90625
440696.76926525,-7.8125,-22.94921875,-967.28515625,9.27734375
440696.7731715,-20.01953125,-13.671875,-416.015625,-3.90625
440696.77707775,26.3671875,-13.18359375,363.76953125,-13.671875
440696.780984,46.875,-14.6484375,567.87109375,2.44140625
440696.78853125,5.37109375,-19.04296875,145.01953125,14.16015625
440696.7924375,-20.99609375,-17.08984375,-165.52734375,6.34765625
440696.79634375,20.01953125,-11.23046875,154.296875,-7.32421875
440696.80025,47.8515625,-13.18359375,372.55859375,5.37109375
440696.80415625,18.06640625,-13.18359375,144.04296875,9.27734375
440696.8080625,-15.13671875,-16.6015625,-462.890625,2.44140625
440696.81196875,1.953125,-17.08984375,-282.71484375,2.9296875
440696.815875,39.0625,-16.11328125,476.07421875,-4.8828125
440696.81978125,30.76171875,-24.4140625,193.84765625,-6.34765625
440696.8236875,-3.41796875,-24.4140625,-375.0,10.25390625
440696.82759375,7.8125,-27.83203125,-338.37890625,8.30078125
440696.8315,44.43359375,-31.73828125,-417.96875,-0.9765625
440696.837945541,46.875,-16.11328125,-46.875,11.71875
440696.841851791,8.7890625,-8.30078125,5.37109375,5.37109375
440696.845758041,-2.44140625,-6.8359375,-208.49609375,-13.18359375
440696.849664291,39.0625,-6.34765625,367.67578125,6.34765625
440696.853570541,54.6875,-13.18359375,629.39453125,29.78515625
440696.857476791,23.92578125,-23.92578125,-31.25,10.25390625
440696.861383041,13.671875,-36.1328125,-933.59375,1.953125
440696.865289291,47.8515625,-33.203125,-566.40625,20.01953125
440696.869195541,62.01171875,-24.4140625,501.46484375,20.5078125
440696.873101791,18.5546875,-24.90234375,347.16796875,20.5078125
440696.877008041,-14.16015625,-25.390625,-170.8984375,11.71875
440696.880914291,10.7421875,-26.3671875,-175.29296875,-7.8125
440696.888277583,50.29296875,-22.4609375,342.7734375,2.44140625
440696.892183833,44.43359375,-28.80859375,441.89453125,13.671875
440696.896090083,7.8125,-32.2265625,-458.49609375,14.6484375
440696.899996333,21.97265625,-24.90234375,-439.94140625,8.30078125
440696.903902583,75.1953125,-22.4609375,405.2734375,5.859375
440696.907808833,61.03515625,-20.99609375,336.9140625,20.5078125
440696.911715083,8.30078125,-21.484375,-296.38671875,11.23046875
440696.915621333,-3.90625,-14.6484375,-312.5,-13.18359375
440696.919527583,32.71484375,0.0,328.125,-4.39453125
440696.923433833,50.78125,-2.44140625,374.0234375,14.16015625
440696.927340083,18.5546875,-8.7890625,-481.93359375,20.5078125
440696.931246333,7.8125,-1.953125,-537.59765625,10.7421875
440696.938895875,41.015625,1.953125,187.98828125,4.39453125
440696.942802125,51.7578125,-0.48828125,623.046875,8.30078125
440696.946708375,20.99609375,-14.16015625,161.1328125,9.765625
440696.950614625,1.46484375,-20.5078125,-301.7578125,17.08984375
440696.954520875,16.11328125,-13.671875,77.63671875,6.34765625
440696.958427125,48.33984375,-14.6484375,57.6171875,13.18359375
440696.962333375,37.109375,-14.16015625,-254.8828125,17.08984375
440696.966239625,0.48828125,-12.20703125,-186.5234375,-1.953125
440696.970145875,5.859375,-20.01953125,-115.72265625,-9.27734375
440696.974052125,36.62109375,-25.87890625,453.125,-6.34765625
440696.977958375,30.76171875,-31.25,619.140625,5.37109375
440696.981864625,-18.5546875,-31.25,14.6484375,3.41796875
440696.962448625,-33.69140625,-34.1796875,-271.484375,-4.39453125
440696.966354875,2.44140625,-36.62109375,-276.85546875,-14.16015625
440696.970261125,18.06640625,-27.34375,164.55078125,-16.6015625
440696.974167375,-2.44140625,-28.3203125,260.25390625,-6.34765625
440696.978073625,-13.671875,-32.71484375,-355.46875,-4.8828125
440696.981979875,16.11328125,-16.11328125,-235.3515625,-3.90625
440696.985886125,44.921875,10.25390625,149.4140625,-1.46484375
440696.989792375,12.6953125,36.62109375,150.390625,5.37109375
440696.993698625,-21.97265625,35.64453125,-342.28515625,-1.46484375
440696.997604875,-0.9765625,26.85546875,-707.51953125,-13.18359375
440697.001511125,24.90234375,26.85546875,173.828125,-17.578125
440697.005417375,7.8125,17.08984375,641.11328125,-20.99609375
440697.010930833,-31.25,2.44140625,-272.4609375,-7.8125
440697.014837083,-28.3203125,3.90625,-779.296875,1.953125
440697.018743333,18.06640625,14.6484375,150.390625,-8.7890625
440697.022649583,32.71484375,6.8359375,665.0390625,-8.30078125
440697.026555833,-4.8828125,5.37109375,-37.59765625,-0.48828125
440697.030462083,-31.25,12.6953125,-617.67578125,-0.9765625
440697.034368333,-1.953125,25.87890625,-103.02734375,-5.37109375
440697.038274583,30.2734375,30.2734375,477.5390625,7.8125
440697.042180833,8.7890625,14.6484375,-263.18359375,29.78515625
440697.046087083,-22.4609375,8.7890625,-946.2890625,14.6484375
440697.049993333,4.8828125,22.94921875,-80.56640625,-16.11328125
440697.053899583,41.015625,26.3671875,549.8046875,-7.32421875
440697.058156083,22.4609375,16.6015625,209.47265625,10.25390625
440697.062062333,-9.765625,17.08984375,-152.83203125,6.34765625
440697.065968583,1.953125,16.6015625,-3.90625,-20.5078125
440697.069874833,41.9921875,16.11328125,482.421875,-24.90234375
440697.073781083,38.57421875,13.671875,342.7734375,-11.23046875
440697.077687333,-7.32421875,7.32421875,-385.7421875,-14.16015625
440697.081593583,-8.30078125,15.13671875,-421.875,-15.13671875
440697.085499833,14.16015625,14.16015625,146.484375,-14.6484375
440697.089406083,22.94921875,7.8125,9.27734375,6.34765625
440697.093312333,-10.7421875,17.578125,-229.4921875,13.671875
440697.097218583,-39.55078125,20.99609375,-376.953125,-7.8125
440697.101124833,11.23046875,18.06640625,-308.10546875,-15.625
440697.108035583,42.96875,18.06640625,137.20703125,-11.23046875
440697.111941833,11.23046875,16.6015625,329.1015625,-3.41796875
440697.115848083,-18.06640625,11.71875,-125.0,0.0
440697.119754333,-7.32421875,14.16015625,-229.4921875,-13.18359375
440697.123660583,29.296875,17.08984375,400.87890625,-8.7890625
440697.127566833,26.85546875,8.7890625,274.4140625,12.6953125
440697.131473083,-17.578125,5.859375,-375.48828125,-4.8828125
440697.135379333,-28.80859375,5.37109375,-755.859375,-8.30078125
440697.139285583,0.9765625,11.71875,-259.27734375,0.0
440697.143191833,13.18359375,19.53125,624.51171875,-9.765625
440697.147098083,-22.4609375,13.671875,132.32421875,9.765625
440697.151004333,-48.33984375,8.7890625,-336.9140625,2.9296875
440697.156096083,-11.23046875,4.39453125,87.40234375,-17.08984375
440697.160002333,25.390625,-2.9296875,475.5859375,-5.859375
440697.163908583,-13.671875,-5.859375,120.60546875,4.39453125
440697.167814833,-52.734375,-5.37109375,-560.05859375,0.48828125
440697.171721083,-26.3671875,-5.37109375,-122.55859375,-15.13671875
440697.175627333,16.6015625,-10.7421875,453.61328125,-14.6484375
440697.179533583,-7.8125,-15.625,16.6015625,-0.9765625
440697.183439833,-48.33984375,-16.11328125,-759.27734375,4.39453125
440697.187346083,-31.25,-3.90625,-311.5234375,-3.90625
440697.191252333,7.32421875,-0.48828125,633.30078125,-10.25390625
440697.195158583,6.8359375,-9.765625,342.7734375,-0.48828125
440697.199064833,-36.1328125,-13.18359375,-290.0390625,-0.9765625
440697.203062083,-34.1796875,-8.7890625,-115.234375,-0.48828125
440697.206968333,9.27734375,-3.41796875,521.484375,-13.671875
440697.210874583,12.20703125,-11.71875,511.23046875,-18.06640625
440697.214780833,-25.390625,-10.7421875,-279.296875,-7.8125
440697.218687083,-31.73828125,-4.8828125,-436.03515625,-9.27734375
440697.222593333,7.8125,-1.953125,114.2578125,-13.18359375
440697.226499583,22.4609375,-3.90625,62.5,-15.625
440697.230405833,-16.6015625,-4.8828125,-684.5703125,0.9765625
440697.234312083,-58.59375,5.37109375,-546.38671875,-4.39453125
440697.238218333,-40.0390625,7.8125,126.46484375,-23.4375
440697.242124583,-10.7421875,-2.9296875,457.51953125,-35.15625
440697.246030833,-30.2734375,-6.8359375,387.20703125,-35.15625
440697.253921625,-85.44921875,6.34765625,-59.08203125,-52.734375
440697.257827875,-91.30859375,7.32421875,-122.55859375,-83.49609375
440697.261734125,-57.6171875,14.16015625,332.51953125,-92.7734375
440697.265640375,-73.2421875,28.80859375,499.51171875,-103.515625
440697.269546625,-145.5078125,23.4375,-34.66796875,-122.0703125
440697.273452875,-193.359375,25.390625,-440.91796875,-157.2265625
440697.277359125,-184.5703125,33.203125,-390.625,-193.84765625
440697.281265375,-207.03125,50.29296875,24.90234375,-224.609375
440697.285171625,-277.34375,62.5,171.38671875,-244.140625
440697.289077875,-314.453125,70.3125,-410.15625,-269.53125
440697.292984125,-277.83203125,86.9140625,-303.7109375,-294.921875
440697.296890375,-236.328125,95.21484375,533.69140625,-292.96875
440697.300069791,-244.140625,79.1015625,400.390625,-274.90234375
440697.303976041,-271.484375,57.12890625,-345.703125,-256.8359375
440697.307882291,-250.9765625,46.875,-196.2890625,-250.48828125
440697.311788541,-194.3359375,37.59765625,532.2265625,-240.72265625
440697.315694791,-188.4765625,25.390625,480.46875,-196.77734375
440697.319601041,-196.2890625,11.71875,-543.45703125,-168.9453125
440697.323507291,-154.78515625,4.8828125,-689.453125,-166.9921875
440697.327413541,-85.9375,5.37109375,417.96875,-148.92578125
440697.331319791,-63.4765625,-2.9296875,566.40625,-104.98046875
440697.335226041,-103.515625,-18.06640625,-517.08984375,-67.3828125
440697.339132291,-89.84375,-18.06640625,-747.0703125,-56.15234375
440697.343038541,-9.765625,-11.23046875,368.65234375,-49.8046875
440697.346609416,26.85546875,-15.13671875,646.97265625,-34.1796875
440697.350515666,2.44140625,-23.92578125,-33.203125,-1.953125
440697.354421916,-14.6484375,-27.34375,-273.4375,23.4375
440697.358328166,31.25,-19.04296875,281.73828125,36.62109375
440697.362234416,81.54296875,-16.11328125,644.53125,51.7578125
440697.366140666,66.40625,-26.85546875,-99.12109375,64.453125
440697.370046916,28.3203125,-31.73828125,-622.55859375,62.98828125
440697.373953166,54.19921875,-30.2734375,13.18359375,56.640625
440697.377859416,113.28125,-34.1796875,448.2421875,64.453125
440697.381765666,111.328125,-38.57421875,-37.109375,71.2890625
440697.385671916,61.5234375,-40.52734375,-347.16796875,74.70703125
440697.389578166,59.5703125,-39.55078125,-211.9140625,77.63671875
440697.394624416,105.95703125,-39.0625,5.859375,81.0546875
440697.398530666,117.67578125,-35.64453125,140.13671875,92.7734375
440697.402436916,69.82421875,-34.1796875,31.25,103.02734375
440697.406343166,53.22265625,-44.921875,-199.70703125,94.7265625
440697.410249416,108.88671875,-52.734375,63.96484375,91.30859375
440697.414155666,134.765625,-40.52734375,251.46484375,83.0078125
440697.418061916,88.8671875,-15.625,-106.4453125,69.82421875
440697.421968166,50.78125,-4.39453125,-239.2578125,81.0546875
440697.425874416,80.56640625,-6.34765625,-360.83984375,85.9375
440697.429780666,114.74609375,-4.8828125,-46.38671875,77.63671875
440697.433686916,95.21484375,-7.32421875,452.1484375,74.70703125
440697.437593166,56.15234375,-19.04296875,-105.46875,83.0078125
440697.444696458,55.6640625,-18.5546875,-173.33984375,75.68359375
440697.448602708,91.796875,-12.20703125,473.14453125,67.3828125
440697.452508958,97.65625,-11.71875,421.38671875,76.171875
440697.456415208,49.8046875,-16.11328125,-160.64453125,82.03125
440697.460321458,35.15625,-19.04296875,-490.72265625,70.3125
440697.464227708,75.1953125,-20.99609375,-64.453125,48.33984375
440697.468133958,89.35546875,-22.94921875,424.31640625,48.33984375
440697.472040208,49.8046875,-27.83203125,-25.390625,65.4296875
440697.475946458,26.85546875,-29.78515625,-792.48046875,58.59375
440697.479852708,60.546875,-19.04296875,-39.55078125,56.15234375
440697.483758958,86.42578125,-15.13671875,860.3515625,64.94140625
440697.487665208,50.29296875,-17.08984375,169.921875,62.5
440697.492992666,19.04296875,-14.16015625,-439.94140625,54.19921875
440697.496898916,47.8515625,-16.6015625,125.0,38.57421875
440697.500805166,86.9140625,-22.4609375,719.7265625,44.921875
440697.504711416,61.03515625,-21.484375,312.01171875,52.24609375
440697.508617666,5.859375,-16.6015625,-456.54296875,43.45703125
440697.512523916,10.25390625,-13.671875,-460.9375,34.66796875
440697.516430166,60.546875,-8.7890625,208.0078125,36.62109375
440697.520336416,64.94140625,-10.7421875,41.50390625,38.57421875
440697.524242666,9.27734375,-11.23046875,-890.13671875,41.9921875
440697.528148916,-6.8359375,-5.37109375,-439.453125,41.9921875
440697.532055166,40.0390625,-8.30078125,471.19140625,30.76171875
440697.535961416,65.4296875,-8.7890625,559.08203125,27.34375
440697.535563666,28.3203125,-15.625,154.78515625,44.921875
440697.539469916,1.953125,-17.08984375,-128.41796875,41.015625
440697.543376166,32.71484375,-11.71875,165.52734375,15.13671875
440697.547282416,54.19921875,-12.20703125,512.20703125,10.7421875
440697.551188666,33.203125,-10.7421875,286.62109375,35.64453125
440697.555094916,4.8828125,-14.16015625,-396.97265625,48.33984375
440697.559001166,11.71875,-10.25390625,-311.03515625,19.53125
440697.562907416,41.015625,-11.23046875,-267.08984375,11.23046875
440697.566813666,23.92578125,-11.71875,-272.94921875,26.85546875
440697.570719916,-24.4140625,-10.7421875,-37.59765625,27.83203125
440697.574626166,-10.7421875,-20.01953125,-206.0546875,26.3671875
440697.578532416,47.8515625,-17.08984375,249.51171875,17.08984375
440697.581618625,44.43359375,-18.06640625,638.671875,18.5546875
440697.585524875,-9.27734375,-26.85546875,151.85546875,9.27734375
440697.589431125,-26.85546875,-27.34375,-357.421875,-4.39453125
440697.593337375,17.578125,-16.6015625,163.0859375,-3.41796875
440697.597243625,51.7578125,-7.32421875,633.7890625,-4.39453125
440697.601149875,16.6015625,-5.859375,18.5546875,7.32421875
440697.605056125,-19.53125,-13.671875,-848.6328125,12.20703125
440697.608962375,11.23046875,-12.6953125,-458.49609375,7.8125
440697.612868625,40.0390625,-6.34765625,640.625,10.7421875
440697.616774875,12.20703125,-16.6015625,338.8671875,3.90625
440697.620681125,-23.4375,-25.87890625,-663.0859375,3.90625
440697.624587375,-13.671875,-15.13671875,-450.68359375,5.37109375
440697.630369291,19.04296875,-0.48828125,650.390625,-6.34765625
440697.634275541,10.25390625,-2.9296875,558.59375,-5.37109375
440697.638181791,-26.3671875,-7.32421875,-275.390625,-2.9296875
440697.642088041,-31.25,4.8828125,-249.0234375,-5.859375
440697.645994291,1.46484375,3.41796875,522.4609375,-12.6953125
440697.649900541,19.53125,-11.23046875,467.28515625,-10.7421875
440697.653806791,-13.671875,-14.6484375,-605.95703125,7.32421875
440697.657713041,-31.25,-6.8359375,-690.91796875,3.41796875
440697.661619291,14.6484375,-4.8828125,379.39453125,-9.765625
440697.665525541,34.1796875,-11.23046875,608.88671875,-6.34765625
440697.669431791,-5.859375,-12.6953125,12.6953125,6.8359375
440697.673338041,-35.15625,-17.578125,-255.37109375,4.8828125
440697.675809166,-12.6953125,-20.01953125,33.203125,-19.04296875
440697.679715416,23.4375,-19.53125,167.96875,-12.20703125
440697.683621666,6.8359375,-17.578125,-104.4921875,2.44140625
440697.687527916,-29.296875,-10.7421875,-220.703125,4.8828125
440697.691434166,-15.13671875,-9.765625,-20.99609375,0.9765625
440697.695340416,19.53125,-21.97265625,88.37890625,-5.37109375
440697.699246666,23.4375,-30.2734375,-8.30078125,-11.71875
440697.703152916,-12.6953125,-32.2265625,-65.4296875,-13.18359375
440697.707059166,-19.53125,-34.66796875,-99.609375,10.7421875
440697.710965416,20.01953125,-27.34375,77.1484375,2.44140625
440697.714871666,21.97265625,-17.578125,355.95703125,-10.25390625
440697.718777916,-20.5078125,-20.99609375,205.56640625,12.6953125
440697.726877708,-26.85546875,-24.4140625,-236.81640625,17.578125
440697.730783958,19.53125,-18.06640625,80.078125,3.90625
440697.734690208,51.7578125,-19.04296875,575.1953125,-6.34765625
440697.738596458,12.6953125,-32.71484375,141.6015625,19.04296875
440697.742502708,-30.76171875,-32.2265625,-404.78515625,18.06640625
440697.746408958,8.30078125,-19.04296875,-630.37109375,9.765625
440697.750315208,55.6640625,-12.6953125,-44.921875,24.90234375
440697.754221458,32.71484375,-15.625,460.44921875,17.08984375
440697.758127708,-12.20703125,-28.3203125,-308.10546875,12.6953125
440697.762033958,2.44140625,-31.73828125,-516.6015625,13.18359375
440697.765940208,47.8515625,-16.6015625,450.1953125,1.953125
440697.769846458,36.62109375,-21.97265625,739.2578125,4.8828125
440697.77207425,-20.99609375,-34.1796875,-135.25390625,2.44140625
440697.7759805,-37.59765625,-26.3671875,-413.0859375,-19.04296875
440697.77988675,2.9296875,-20.5078125,381.8359375,-17.578125
440697.783793,25.390625,-19.53125,741.2109375,-4.8828125
440697.78769925,-16.6015625,-25.87890625,-49.31640625,0.9765625
440697.7916055,-45.8984375,-31.73828125,-750.9765625,-6.34765625
440697.79551175,-5.37109375,-27.34375,-256.8359375,0.48828125
440697.799418,27.83203125,-21.484375,359.375,1.953125
440697.80332425,-1.953125,-33.69140625,-238.76953125,-4.39453125
440697.8072305,-45.8984375,-42.96875,-978.02734375,-7.32421875
440697.81113675,-25.390625,-33.203125,-166.9921875,-11.71875
440697.815043,22.94921875,-41.015625,641.6015625,-6.8359375
440697.8221685,20.01953125,-46.38671875,315.91796875,8.30078125
440697.82607475,-23.4375,-38.0859375,-184.5703125,-0.9765625
440697.829981,-30.76171875,-37.109375,-55.6640625,-9.27734375
440697.83388725,10.7421875,-32.2265625,383.7890625,-7.8125
440697.8377935,20.99609375,-28.80859375,447.75390625,-14.16015625
440697.84169975,-26.85546875,-36.62109375,-193.359375,-18.5546875
440697.845606,-55.17578125,-39.55078125,-480.95703125,-27.83203125
440697.84951225,-11.23046875,-32.2265625,97.65625,-23.4375
440697.8534185,25.390625,-23.92578125,-44.43359375,-7.32421875
440697.85732475,-9.27734375,-15.13671875,-275.87890625,-1.953125
440697.861231,-46.38671875,-18.5546875,-81.54296875,-5.859375
440697.86513725,-24.4140625,-39.0625,-15.625,-8.30078125
440697.844327208,16.6015625,-40.0390625,184.08203125,-12.6953125
440697.848233458,7.8125,-14.16015625,270.01953125,-3.41796875
440697.852139708,-14.16015625,-7.32421875,-126.953125,17.08984375
440697.856045958,17.08984375,-12.20703125,-163.57421875,26.3671875
440697.859952208,49.31640625,-5.37109375,406.25,1.953125
440697.863858458,3.90625,0.0,300.29296875,-28.80859375
440697.867764708,-64.94140625,-1.46484375,-355.46875,-47.36328125
440697.871670958,-71.2890625,-5.37109375,-756.8359375,-39.55078125
440697.875577208,-30.2734375,-3.90625,-221.19140625,-45.41015625
440697.879483458,-23.92578125,-14.6484375,666.9921875,-62.01171875
440697.883389708,-80.56640625,-34.66796875,199.21875,-49.31640625
440697.887295958,-115.234375,-56.15234375,-688.96484375,-49.31640625
440697.91707975,-63.96484375,-47.8515625,-165.0390625,-53.22265625
440697.920986,-44.921875,-20.01953125,790.52734375,-56.640625
440697.92489225,-87.40234375,-26.3671875,274.90234375,-57.12890625
440697.9287985,-95.703125,-40.0390625,-427.24609375,-57.12890625
440697.93270475,-80.078125,-29.78515625,20.01953125,-69.82421875
440697.936611,-57.6171875,-12.20703125,498.046875,-70.3125
440697.94051725,-55.17578125,-6.8359375,102.05078125,-51.7578125
440697.9444235,-90.33203125,-6.34765625,-721.6796875,-35.15625
440697.94832975,-65.4296875,-3.41796875,-462.890625,-31.25
440697.952236,-4.39453125,7.32421875,631.8359375,-24.4140625
440697.95614225,4.8828125,3.90625,544.43359375,-16.11328125
440697.9600485,-38.0859375,-8.30078125,-193.359375,-12.6953125
440697.94285675,-49.31640625,1.46484375,-155.2734375,-34.1796875
440697.946763,-3.41796875,4.8828125,403.80859375,-42.96875
440697.95066925,12.20703125,-0.48828125,220.703125,-23.4375
440697.9545755,-25.87890625,0.9765625,-358.88671875,-11.23046875
440697.95848175,-44.43359375,4.39453125,-246.09375,-19.04296875
440697.962388,-10.25390625,10.7421875,122.55859375,-37.109375
440697.96629425,20.01953125,7.8125,47.36328125,-29.78515625
440697.9702005,-2.44140625,-1.953125,-318.359375,-14.6484375
440697.97410675,-34.1796875,-4.39453125,-211.42578125,-13.18359375
440697.978013,-23.4375,-14.6484375,148.4375,-20.01953125
440697.98191925,15.13671875,-22.94921875,427.24609375,-27.34375
440697.9858255,7.32421875,-28.3203125,319.82421875,-24.4140625
440698.013035166,-34.66796875,-36.62109375,0.9765625,-0.48828125
440698.016941416,-21.97265625,-32.2265625,-73.2421875,-1.46484375
440698.020847666,20.5078125,-21.484375,338.37890625,-15.13671875
440698.024753916,20.5078125,-19.04296875,508.7890625,-7.32421875
440698.028660166,-26.3671875,-26.3671875,-150.87890625,-4.39453125
440698.032566416,-34.1796875,-42.96875,-469.7265625,-12.20703125
440698.036472666,20.99609375,-46.38671875,-500.48828125,-5.859375
440698.040378916,27.34375,-26.3671875,-106.93359375,-6.8359375
440698.044285166,-19.04296875,-22.4609375,233.3984375,-3.90625
440698.048191416,-39.55078125,-31.25,-378.41796875,2.44140625
440698.052097666,-11.23046875,-23.92578125,-48.33984375,-18.5546875
440698.056003916,27.83203125,-16.6015625,723.6328125,-12.6953125
440698.062445666,10.7421875,-13.18359375,481.93359375,4.39453125
440698.066351916,-21.97265625,-12.20703125,-324.70703125,5.859375
440698.070258166,5.37109375,-8.7890625,-282.71484375,7.32421875
440698.074164416,44.43359375,1.46484375,541.9921875,-3.90625
440698.078070666,28.80859375,0.0,569.3359375,-3.90625
440698.081976916,-17.08984375,-24.4140625,-483.88671875,4.39453125
440698.085883166,-13.18359375,-29.296875,-777.34375,-2.9296875
440698.089789416,19.53125,-10.7421875,91.30859375,-8.30078125
440698.093695666,10.7421875,-12.20703125,476.07421875,2.44140625
440698.097601916,-20.01953125,-22.4609375,-359.375,7.32421875
440698.101508166,-34.66796875,-12.6953125,-729.00390625,-5.37109375
440698.105414416,10.25390625,-0.48828125,280.76171875,-12.20703125
440698.088162625,37.59765625,-4.39453125,657.2265625,-10.7421875
440698.092068875,-6.34765625,-6.8359375,61.03515625,1.953125
440698.095975125,-28.3203125,-1.46484375,-302.24609375,2.44140625
440698.099881375,3.90625,1.46484375,188.96484375,-4.8828125
440698.103787625,39.0625,-9.27734375,571.77734375,4.8828125
440698.107693875,15.625,-24.90234375,-37.59765625,10.7421875
440698.111600125,-26.3671875,-20.99609375,-532.71484375,2.9296875
440698.115506375,-9.765625,-13.671875,-4.8828125,-3.90625
440698.119412625,44.43359375,-10.7421875,476.5625,0.9765625
440698.123318875,37.109375,-8.7890625,-78.61328125,5.859375
440698.127225125,-16.11328125,0.0,-493.65234375,3.90625
440698.131131375,-26.85546875,9.765625,-64.453125,-2.44140625
440698.161657291,17.578125,8.30078125,227.5390625,-10.25390625
440698.165563541,42.48046875,8.30078125,157.71484375,0.0
440698.169469791,5.37109375,16.6015625,19.04296875,25.390625
440698.173376041,-32.71484375,15.625,-137.20703125,20.5078125
440698.177282291,-11.23046875,8.30078125,73.2421875,-12.6953125
440698.181188541,15.13671875,11.71875,201.66015625,-16.6015625
440698.185094791,-7.32421875,9.27734375,-65.91796875,-5.37109375
440698.189001041,-37.109375,1.46484375,-256.8359375,-0.9765625
440698.192907291,-12.6953125,0.9765625,-419.43359375,5.37109375
440698.196813541,29.78515625,7.8125,-83.984375,5.859375
440698.200719791,23.92578125,7.8125,454.58984375,3.41796875
440698.204626041,-18.5546875,1.46484375,-119.140625,7.8125
440698.186409,-13.18359375,13.18359375,-427.734375,7.8125
440698.19031525,43.9453125,25.390625,285.15625,0.9765625
440698.1942215,44.43359375,23.4375,644.53125,-1.46484375
440698.19812775,-11.71875,13.671875,-44.43359375,14.6484375
440698.202034,-14.16015625,9.765625,-561.5234375,10.7421875
440698.20594025,33.69140625,18.06640625,-158.203125,0.48828125
440698.2098465,47.8515625,26.3671875,287.109375,8.30078125
440698.21375275,11.71875,23.92578125,-73.73046875,8.7890625
440698.217659,-15.625,20.01953125,-722.16796875,0.9765625
440698.22156525,19.53125,29.296875,-115.72265625,-13.18359375
440698.2254715,48.33984375,19.53125,746.09375,-11.23046875
440698.22937775,12.6953125,1.46484375,192.3828125,3.41796875
440698.23771025,-17.08984375,7.32421875,-475.09765625,2.44140625
440698.2416165,4.8828125,18.06640625,66.89453125,5.37109375
440698.24552275,38.57421875,15.13671875,651.3671875,-7.8125
440698.249429,32.71484375,6.34765625,93.75,-1.953125
440698.25333525,-10.7421875,-3.41796875,-613.28125,16.6015625
440698.2572415,-13.671875,-12.6953125,-390.13671875,-2.9296875
440698.26114775,27.34375,-6.34765625,188.4765625,-10.7421875
440698.265054,30.76171875,-9.765625,-13.18359375,7.8125
440698.26896025,-7.8125,-20.01953125,-638.18359375,7.32421875
440698.2728665,-20.01953125,-16.6015625,-230.46875,-7.32421875
440698.27677275,19.53125,-25.87890625,361.81640625,-16.11328125
440698.280679,46.875,-48.33984375,393.5546875,-12.6953125
440698.2872985,2.44140625,-59.5703125,8.30078125,-7.32421875
440698.29120475,-30.2734375,-54.19921875,-159.66796875,-6.8359375
440698.295111,10.7421875,-39.0625,95.21484375,-7.8125
440698.29901725,44.43359375,-28.80859375,428.22265625,-19.04296875
440698.3029235,10.25390625,-37.59765625,228.515625,-14.6484375
440698.30682975,-21.97265625,-47.36328125,-430.6640625,-4.39453125
440698.310736,12.20703125,-41.9921875,-360.83984375,-10.7421875
440698.31464225,46.875,-42.48046875,-336.9140625,-6.34765625
440698.3185485,26.3671875,-37.59765625,-273.4375,-9.765625
440698.32245475,-24.4140625,-39.0625,-26.85546875,-13.18359375
440698.326361,-17.08984375,-38.57421875,-298.828125,-8.30078125
440698.33026725,33.203125,-29.296875,173.33984375,-24.4140625
440698.313063666,39.0625,-40.0390625,642.578125,-25.87890625
440698.316969916,4.39453125,-49.8046875,212.890625,-11.23046875
440698.320876166,-15.13671875,-53.22265625,-353.02734375,-4.39453125
440698.324782416,14.6484375,-40.52734375,20.01953125,-6.34765625
440698.328688666,46.38671875,-30.2734375,612.3046875,-5.37109375
440698.332594916,13.671875,-36.1328125,59.5703125,9.27734375
440698.336501166,-17.578125,-40.52734375,-821.2890625,17.08984375
440698.340407416,12.6953125,-25.390625,-625.9765625,4.8828125
440698.344313666,38.57421875,-15.625,272.4609375,-8.7890625
440698.348219916,24.90234375,-26.3671875,290.0390625,1.953125
440698.352126166,0.0,-32.2265625,-473.6328125,17.578125
440698.356032416,12.6953125,-27.34375,-342.28515625,13.671875
440698.387256083,76.66015625,-15.625,604.00390625,8.30078125
440698.391162333,87.890625,-17.08984375,580.078125,18.5546875
440698.395068583,31.25,-20.5078125,-206.0546875,21.97265625
440698.398974833,21.484375,-18.06640625,-362.79296875,21.484375
440698.402881083,68.359375,-15.13671875,336.9140625,19.53125
440698.406787333,82.03125,-20.99609375,367.67578125,21.484375
440698.410693583,45.8984375,-20.5078125,-579.1015625,36.1328125
440698.414599833,17.08984375,9.765625,-662.109375,25.390625
440698.418506083,45.8984375,26.3671875,303.7109375,4.39453125
440698.422412333,82.03125,24.4140625,521.484375,14.16015625
440698.426318583,52.734375,29.296875,-89.35546875,26.85546875
440698.430224833,7.8125,22.4609375,-449.70703125,23.92578125
440698.4365465,27.83203125,6.34765625,52.734375,11.23046875
440698.44045275,75.68359375,0.0,351.5625,13.671875
440698.444359,55.17578125,3.41796875,-20.01953125,43.9453125
440698.44826525,12.6953125,12.6953125,-152.83203125,42.48046875
440698.4521715,18.5546875,5.859375,48.33984375,21.97265625
440698.45607775,54.6875,-6.8359375,204.1015625,14.16015625
440698.459984,57.6171875,-2.44140625,112.79296875,15.13671875
440698.46389025,29.78515625,6.34765625,-58.59375,31.73828125
440698.4677965,26.3671875,6.8359375,-107.91015625,35.15625
440698.47170275,43.45703125,-3.90625,-147.94921875,20.5078125
440698.475609,42.48046875,-6.34765625,-59.08203125,28.3203125
440698.47951525,6.8359375,-2.9296875,157.71484375,37.59765625
440698.484629166,-15.13671875,-11.23046875,-175.78125,30.76171875
440698.488535416,22.4609375,-10.25390625,-138.671875,18.5546875
440698.492441666,50.78125,-3.41796875,353.02734375,7.8125
440698.496347916,17.08984375,-8.7890625,384.27734375,15.625
440698.500254166,-20.5078125,-17.08984375,-196.2890625,14.6484375
440698.504160416,-1.46484375,-19.04296875,-613.28125,-1.953125
440698.508066666,44.921875,-12.20703125,-2.9296875,-7.32421875
440698.511972916,29.296875,-19.04296875,533.203125,3.90625
440698.515879166,-20.01953125,-34.1796875,-177.24609375,0.9765625
440698.519785416,-8.30078125,-25.87890625,-637.6953125,-13.18359375
440698.523691666,46.38671875,-12.6953125,165.52734375,-8.7890625
440698.527597916,59.5703125,-20.5078125,648.92578125,-3.90625
440698.507248708,2.9296875,-34.66796875,-99.12109375,2.9296875
440698.511154958,-21.97265625,-39.55078125,-445.80078125,14.6484375
440698.515061208,22.94921875,-29.296875,300.29296875,-5.37109375
440698.518967458,36.62109375,-22.94921875,634.765625,-25.87890625
440698.522873708,-0.9765625,-24.90234375,-103.02734375,-0.9765625
440698.526779958,-19.04296875,-21.97265625,-735.3515625,23.4375
440698.530686208,16.6015625,-9.765625,-238.28125,12.6953125
440698.534592458,52.734375,-8.7890625,604.98046875,5.37109375
440698.538498708,22.4609375,-26.3671875,-62.98828125,13.671875
440698.542404958,-23.92578125,-26.85546875,-901.85546875,26.85546875
440698.546311208,2.44140625,-17.08984375,-103.515625,20.99609375
440698.550217458,44.921875,-17.08984375,543.9453125,0.48828125
440698.558004916,22.4609375,-12.6953125,292.48046875,2.9296875
440698.561911166,-30.76171875,-16.11328125,-238.28125,18.5546875
440698.565817416,-28.3203125,-16.11328125,-135.25390625,5.37109375
440698.569723666,21.484375,-9.27734375,361.328125,-5.859375
440698.573629916,33.69140625,-15.13671875,352.5390625,5.37109375
440698.577536166,-9.765625,-26.85546875,-259.27734375,14.6484375
440698.581442416,-22.4609375,-17.578125,-624.51171875,5.37109375
440698.585348666,19.04296875,-9.27734375,-91.30859375,-17.578125
440698.589254916,41.015625,-12.6953125,-260.25390625,-15.625
440698.593161166,2.9296875,-7.32421875,-566.40625,-9.27734375
440698.597067416,-39.0625,-9.27734375,-162.109375,-12.20703125
440698.600973666,-6.8359375,-17.578125,-41.9921875,-12.6953125
440698.60622625,35.64453125,-16.6015625,317.3828125,-14.16015625
440698.6101325,14.16015625,-22.4609375,456.54296875,-15.13671875
440698.61403875,-20.99609375,-29.78515625,-20.01953125,-5.37109375
440698.617945,-6.8359375,-30.76171875,-249.51171875,-0.48828125
440698.62185125,41.50390625,-22.4609375,224.609375,-3.90625
440698.6257575,42.48046875,-20.01953125,268.5546875,-1.46484375
440698.62966375,-16.6015625,-26.3671875,-341.30859375,5.859375
440698.63357,-25.390625,-23.92578125,-836.9140625,11.71875
440698.63747625,25.390625,-3.41796875,-409.66796875,7.8125
440698.6413825,40.0390625,9.27734375,347.65625,3.41796875
440698.64528875,6.34765625,0.9765625,-136.71875,12.6953125
440698.649195,-4.8828125,-4.8828125,-642.578125,18.06640625
440698.655948625,25.390625,-5.859375,-36.1328125,6.34765625
440698.659854875,49.8046875,-6.34765625,679.6875,1.953125
440698.663761125,20.99609375,-8.30078125,206.54296875,16.11328125
440698.667667375,-21.484375,-11.23046875,-390.13671875,15.13671875
440698.671573625,-0.48828125,-10.25390625,-44.921875,-6.34765625
440698.675479875,42.96875,-6.8359375,351.5625,-6.8359375
440698.679386125,17.578125,-11.71875,51.7578125,1.953125
440698.683292375,-35.64453125,-24.4140625,-716.796875,-6.34765625
440698.687198625,-30.2734375,-20.5078125,-439.94140625,-23.92578125
440698.691104875,10.25390625,-18.06640625,541.9921875,-35.64453125
440698.695011125,3.90625,-21.97265625,432.6171875,-28.80859375
440698.698917375,-34.66796875,-26.3671875,-280.76171875,-22.94921875
440698.706579291,-46.875,-44.43359375,-477.5390625,-30.2734375
440698.710485541,-5.37109375,-51.26953125,258.30078125,-42.96875
440698.714391791,10.25390625,-47.36328125,361.328125,-25.87890625
440698.718298041,-37.109375,-55.17578125,-287.59765625,-19.53125
440698.722204291,-67.87109375,-55.6640625,-315.91796875,-29.296875
440698.726110541,-36.1328125,-41.9921875,-27.83203125,-31.25
440698.730016791,-9.27734375,-45.8984375,-42.96875,-37.109375
440698.733923041,-36.1328125,-48.33984375,-378.90625,-30.76171875
440698.737829291,-62.98828125,-36.1328125,-223.14453125,-23.4375
440698.741735541,-34.1796875,-33.69140625,-9.27734375,-32.71484375
440698.745641791,2.44140625,-33.69140625,311.03515625,-31.25
440698.749548041,0.48828125,-41.9921875,389.6484375,-6.34765625
440698.756899083,-26.3671875,-46.875,11.23046875,14.6484375
440698.760805333,-30.76171875,-37.59765625,-87.890625,5.37109375
440698.764711583,15.13671875,-31.25,129.8828125,-16.6015625
440698.768617833,15.625,-23.4375,259.27734375,-8.30078125
440698.772524083,-34.66796875,-32.71484375,18.06640625,4.39453125
440698.776430333,-40.52734375,-41.015625,-336.9140625,-5.37109375
440698.780336583,0.0,-32.71484375,-587.890625,-13.18359375
440698.784242833,18.06640625,-21.97265625,-209.9609375,-12.20703125
440698.788149083,-15.13671875,-14.6484375,272.4609375,0.48828125
440698.792055333,-45.8984375,-5.859375,-261.71875,1.953125
440698.795961583,-23.92578125,3.90625,-99.12109375,-23.4375
440698.799867833,9.765625,4.39453125,565.91796875,-30.76171875
440698.829285,-22.94921875,-4.39453125,377.9296875,-24.90234375
440698.83319125,-74.21875,-10.7421875,-282.2265625,-23.92578125
440698.8370975,-50.29296875,-0.48828125,-293.9453125,-33.203125
440698.84100375,2.9296875,10.7421875,407.71484375,-41.9921875
440698.84491,-9.765625,3.41796875,487.3046875,-28.80859375
440698.84881625,-56.640625,-10.7421875,-384.27734375,-14.6484375
440698.8527225,-61.03515625,-10.25390625,-699.70703125,-20.5078125
440698.85662875,-4.39453125,-13.18359375,71.77734375,-29.296875
440698.860535,25.87890625,-24.4140625,623.53515625,-13.671875
440698.86444125,-23.92578125,-41.50390625,-283.203125,3.90625
440698.8683475,-50.29296875,-41.50390625,-869.62890625,0.9765625
440698.87225375,-19.04296875,-34.66796875,168.45703125,-14.6484375
440698.853223958,2.44140625,-46.38671875,649.90234375,-20.5078125
440698.857130208,-34.1796875,-55.6640625,83.984375,-8.30078125
440698.861036458,-65.91796875,-53.22265625,-294.921875,-3.90625
440698.864942708,-35.64453125,-53.7109375,142.08984375,-18.06640625
440698.868848958,-0.48828125,-54.19921875,555.6640625,-20.5078125
440698.872755208,-20.5078125,-58.10546875,-3.41796875,-20.01953125
440698.876661458,-51.26953125,-59.5703125,-480.95703125,-12.20703125
440698.880567708,-34.1796875,-60.05859375,-127.44140625,-4.39453125
440698.884473958,7.8125,-57.6171875,163.57421875,-20.5078125
440698.888380208,17.578125,-50.78125,91.796875,-24.90234375
440698.892286458,-20.99609375,-50.78125,-87.40234375,-3.90625
440698.896192708,-22.4609375,-53.22265625,-63.96484375,-2.44140625
440698.900409125,20.5078125,-55.17578125,93.75,-12.6953125
440698.904315375,33.203125,-52.24609375,-41.9921875,-13.671875
440698.908221625,-4.39453125,-48.33984375,-61.03515625,-23.92578125
440698.912127875,-28.3203125,-62.98828125,-79.1015625,-23.4375
440698.916034125,3.90625,-73.73046875,-83.0078125,-25.390625
440698.919940375,34.1796875,-70.3125,-42.48046875,-12.6953125
440698.923846625,2.9296875,-70.3125,-29.296875,5.37109375
440698.927752875,-34.1796875,-74.70703125,-157.71484375,-6.34765625
440698.931659125,-1.46484375,-82.03125,-434.08203125,-11.71875
440698.935565375,49.31640625,-84.47265625,-166.015625,-3.41796875
440698.939471625,31.25,-74.21875,259.765625,-4.39453125
440698.943377875,-11.23046875,-73.2421875,-326.171875,0.48828125
440698.949542125,15.625,-59.5703125,-570.80078125,0.0
440698.953448375,67.87109375,-59.5703125,156.25,-13.18359375
440698.957354625,62.98828125,-71.77734375,586.9140625,1.953125
440698.961260875,11.71875,-77.1484375,-55.6640625,14.16015625
440698.965167125,-5.37109375,-78.125,-401.3671875,-7.32421875
440698.969073375,42.96875,-70.3125,-47.8515625,-16.6015625
440698.972979625,65.91796875,-66.40625,376.46484375,-5.37109375
440698.976885875,11.71875,-72.75390625,91.30859375,-5.37109375
440698.980792125,-21.97265625,-80.078125,-764.6484375,-1.46484375
440698.984698375,8.7890625,-71.77734375,-208.984375,-5.859375
440698.988604625,41.50390625,-67.3828125,746.58203125,-21.484375
440698.992510875,1.46484375,-70.80078125,251.46484375,-15.625
440698.970860791,-52.24609375,-76.66015625,-399.4140625,3.41796875
440698.974767041,-31.73828125,-77.63671875,-205.078125,2.9296875
440698.978673291,12.6953125,-72.75390625,428.22265625,-7.8125
440698.982579541,2.9296875,-77.1484375,197.265625,-13.671875
440698.986485791,-45.8984375,-86.9140625,-535.64453125,-12.6953125
440698.990392041,-39.55078125,-77.1484375,-431.640625,-18.5546875
440698.994298291,5.37109375,-60.546875,53.7109375,-19.53125
440698.998204541,5.859375,-61.5234375,-22.94921875,0.0
440699.002110791,-43.9453125,-69.82421875,-618.1640625,8.30078125
440699.006017041,-55.17578125,-59.5703125,-361.328125,-11.71875
440699.009923291,0.0,-56.640625,234.86328125,-8.30078125
440699.013829541,31.73828125,-57.6171875,366.2109375,18.5546875
440699.042854166,-12.20703125,-53.22265625,78.125,16.11328125
440699.046760416,-54.19921875,-52.24609375,-79.1015625,2.44140625
440699.050666666,-22.4609375,-52.24609375,154.78515625,-14.16015625
440699.054572916,20.01953125,-59.08203125,396.484375,-19.04296875
440699.058479166,3.41796875,-59.5703125,100.09765625,0.48828125
440699.062385416,-35.64453125,-53.7109375,-472.16796875,3.41796875
440699.066291666,-21.484375,-38.57421875,-336.9140625,-5.859375
440699.070197916,21.484375,-31.73828125,-320.3125,-1.953125
440699.074104166,8.30078125,-28.3203125,-291.50390625,-0.48828125
440699.078010416,-33.69140625,-28.80859375,45.41015625,2.44140625
440699.081916666,-26.3671875,-32.2265625,-209.47265625,3.41796875
440699.085822916,17.578125,-32.71484375,141.6015625,-6.34765625
440699.068229375,24.90234375,-36.1328125,615.72265625,-5.37109375
440699.072135625,-18.5546875,-37.109375,197.75390625,3.90625
440699.076041875,-39.0625,-33.203125,-360.83984375,6.34765625
440699.079948125,0.0,-24.90234375,19.04296875,-19.04296875
440699.083854375,34.66796875,-31.73828125,628.90625,-39.55078125
440699.087760625,-3.41796875,-37.109375,102.05078125,-11.23046875
440699.091666875,-38.57421875,-38.57421875,-816.40625,-3.41796875
440699.095573125,-8.7890625,-26.85546875,-580.56640625,-20.5078125
440699.099479375,20.5078125,-18.5546875,510.25390625,-23.92578125
440699.103385625,4.39453125,-26.3671875,518.06640625,-12.6953125
440699.107291875,-32.71484375,-29.78515625,-541.015625,2.44140625
440699.111198125,-27.83203125,-28.80859375,-644.53125,-0.9765625
440699.118426916,15.625,-26.85546875,460.9375,-16.6015625
440699.122333166,14.16015625,-28.3203125,529.78515625,-18.06640625
440699.126239416,-33.203125,-26.85546875,-200.68359375,-27.34375
440699.130145666,-40.52734375,-21.484375,-286.62109375,-37.59765625
440699.134051916,7.32421875,-20.99609375,259.27734375,-40.52734375
440699.137958166,31.73828125,-28.3203125,379.8828125,-26.85546875
440699.141864416,-11.23046875,-36.62109375,-510.25390625,-11.71875
440699.145770666,-38.57421875,-35.64453125,-684.5703125,-19.04296875
440699.149676916,0.48828125,-31.25,249.51171875,-22.4609375
440699.153583166,32.2265625,-36.62109375,395.99609375,-19.53125
440699.157489416,-4.39453125,-44.921875,-153.3203125,-15.625
440699.161395666,-40.52734375,-39.0625,-273.4375,-11.71875
440699.169113083,-21.97265625,-35.15625,151.3671875,-14.6484375
440699.173019333,11.71875,-41.015625,433.59375,-17.08984375
440699.176925583,12.20703125,-44.43359375,243.1640625,-0.48828125
440699.180831833,-28.3203125,-48.828125,-36.1328125,2.44140625
440699.184738083,-23.4375,-42.48046875,-2.9296875,-9.27734375
440699.188644333,24.4140625,-29.296875,9.765625,-10.25390625
440699.192550583,17.578125,-25.87890625,-73.2421875,-17.578125
440699.196456833,-18.5546875,-25.87890625,-41.9921875,-19.04296875
440699.200363083,-25.390625,-31.25,-150.390625,-14.6484375
440699.204269333,17.578125,-28.80859375,-115.72265625,-21.97265625
440699.208175583,41.50390625,-22.4609375,246.58203125,-17.578125
440699.212081833,1.46484375,-23.92578125,173.828125,0.0
440699.217456708,-21.484375,-29.296875,-449.21875,1.953125
440699.221362958,16.11328125,-32.2265625,-321.77734375,-5.859375
440699.225269208,41.9921875,-31.25,314.94140625,0.0
440699.229175458,7.8125,-35.64453125,299.8046875,1.953125
440699.233081708,-29.78515625,-41.50390625,-291.015625,0.9765625
440699.236987958,-9.27734375,-40.0390625,-456.0546875,-0.48828125
440699.240894208,36.1328125,-37.109375,166.50390625,10.7421875
440699.244800458,36.1328125,-38.0859375,507.32421875,23.4375
440699.248706708,-10.25390625,-46.875,-176.26953125,0.9765625
440699.252612958,-20.01953125,-47.36328125,-699.21875,1.46484375
440699.256519208,28.3203125,-33.203125,141.6015625,-8.30078125
440699.260425458,41.015625,-37.109375,708.49609375,-24.4140625
440699.259619083,-3.90625,-52.24609375,-52.734375,-8.30078125
440699.263525333,-18.06640625,-47.36328125,-445.3125,-4.8828125
440699.267431583,31.25,-40.0390625,33.69140625,-14.16015625
440699.271337833,58.10546875,-39.0625,439.94140625,-14.16015625
440699.275244083,13.18359375,-39.55078125,-69.82421875,-5.37109375
440699.279150333,-26.85546875,-42.48046875,-839.35546875,8.30078125
440699.283056583,-7.32421875,-40.0390625,-294.921875,7.8125
440699.286962833,19.53125,-40.52734375,563.96484375,-3.90625
440699.290869083,1.953125,-45.8984375,-27.34375,11.23046875
440699.294775333,-42.48046875,-42.96875,-833.49609375,14.16015625
440699.298681583,-23.4375,-36.62109375,-133.7890625,3.41796875
440699.302587833,37.109375,-38.0859375,448.2421875,3.90625
440699.332754791,42.48046875,-36.1328125,262.6953125,-1.953125
440699.336661041,-3.90625,-37.59765625,-108.3984375,12.20703125
440699.340567291,-12.6953125,-35.15625,-87.890625,10.25390625
440699.344473541,27.34375,-34.66796875,323.73046875,5.859375
440699.348379791,42.96875,-43.45703125,287.109375,10.7421875
440699.352286041,4.39453125,-56.15234375,-285.64453125,8.30078125
440699.356192291,-14.6484375,-61.03515625,-565.4296875,-9.27734375
440699.360098541,26.85546875,-58.59375,-112.3046875,-25.87890625
440699.364004791,59.5703125,-64.453125,-241.69921875,-11.23046875
440699.367911041,22.4609375,-63.4765625,-537.109375,6.8359375
440699.371817291,-17.08984375,-61.5234375,-149.4140625,0.0
440699.375723541,6.34765625,-66.89453125,-38.0859375,-12.6953125
440699.358112083,40.52734375,-58.59375,324.70703125,-17.08984375
440699.362018333,11.71875,-61.5234375,507.8125,-15.13671875
440699.365924583,-41.015625,-74.21875,-29.296875,-7.32421875
440699.369830833,-37.59765625,-68.84765625,-295.8984375,-20.5078125
440699.373737083,7.32421875,-58.10546875,274.90234375,-30.76171875
440699.377643333,10.25390625,-61.03515625,341.796875,-19.04296875
440699.381549583,-28.80859375,-54.6875,-286.62109375,-15.625
440699.385455833,-37.109375,-50.78125,-812.98828125,-11.23046875
440699.389362083,7.8125,-45.41015625,-440.91796875,-8.7890625
440699.393268333,32.71484375,-35.15625,560.546875,-8.7890625
440699.397174583,-3.41796875,-43.9453125,322.265625,-4.39453125
440699.401080833,-31.25,-45.8984375,-655.76171875,-3.41796875
440699.405542291,-3.41796875,-24.4140625,-381.8359375,-6.8359375
440699.409448541,28.3203125,-17.08984375,645.01953125,-8.7890625
440699.413354791,5.859375,-33.203125,350.5859375,6.8359375
440699.417261041,-33.69140625,-48.33984375,-323.73046875,8.7890625
440699.421167291,-10.7421875,-53.7109375,-53.22265625,-9.27734375
440699.425073541,29.78515625,-57.12890625,367.67578125,-22.94921875
440699.428979791,8.7890625,-69.3359375,134.27734375,-4.39453125
440699.432886041,-27.83203125,-78.125,-640.13671875,15.13671875
440699.436792291,-30.2734375,-65.4296875,-524.4140625,-6.34765625
440699.440698541,3.41796875,-55.6640625,368.1640625,-17.578125
440699.444604791,8.30078125,-64.94140625,343.26171875,-0.9765625
440699.448511041,-39.55078125,-67.3828125,-201.171875,15.625
440699.451780083,-59.5703125,-56.15234375,-136.71875,3.41796875
440699.455686333,-14.16015625,-52.24609375,470.21484375,-9.27734375
440699.459592583,9.27734375,-63.96484375,489.2578125,-5.859375
440699.463498833,-31.25,-73.2421875,-98.14453125,-9.27734375
440699.467405083,-56.15234375,-65.4296875,-261.71875,-13.671875
440699.471311333,-12.20703125,-54.19921875,-57.6171875,-12.6953125
440699.475217583,14.6484375,-51.26953125,-40.52734375,-13.18359375
440699.479123833,-19.04296875,-48.828125,-400.390625,1.953125
440699.483030083,-51.7578125,-44.43359375,-280.2734375,12.6953125
440699.486936333,-25.390625,-44.921875,26.85546875,5.859375
440699.490842583,17.578125,-46.38671875,317.87109375,4.39453125
440699.494748833,3.90625,-46.875,422.36328125,5.37109375
440699.499123625,-39.55078125,-52.734375,3.41796875,3.90625
440699.503029875,-45.8984375,-52.24609375,-407.71484375,-6.8359375
440699.506936125,0.0,-39.55078125,-70.80078125,-9.27734375
440699.510842375,22.94921875,-38.57421875,395.5078125,-3.41796875
440699.514748625,-19.04296875,-51.26953125,150.87890625,0.0
440699.518654875,-40.0390625,-52.24609375,-416.9921875,-4.39453125
440699.522561125,-0.48828125,-39.55078125,-515.625,0.0
440699.526467375,15.625,-24.90234375,140.625,0.48828125
440699.530373625,-19.53125,-31.73828125,375.0,-5.37109375
440699.534279875,-39.0625,-44.921875,-268.5546875,-6.34765625
440699.538186125,1.46484375,-35.64453125,-168.45703125,-11.71875
440699.542092375,34.66796875,-34.1796875,575.1953125,-11.23046875
440699.544519416,19.04296875,-40.52734375,539.0625,0.9765625
440699.548425666,-13.18359375,-48.828125,-270.99609375,4.39453125
440699.552331916,-13.671875,-55.6640625,-321.2890625,-15.13671875
440699.556238166,9.765625,-56.640625,343.75,-31.73828125
440699.560144416,-0.48828125,-51.7578125,337.40234375,-20.01953125
440699.564050666,-37.59765625,-57.12890625,-480.46875,-5.37109375
440699.567956916,-40.52734375,-56.15234375,-942.3828125,-3.41796875
440699.571863166,13.18359375,-43.45703125,48.828125,-18.5546875
440699.575769416,24.90234375,-44.921875,627.44140625,-24.4140625
440699.579675666,-20.01953125,-49.31640625,-5.37109375,-9.765625
440699.583581916,-42.96875,-47.36328125,-310.546875,-16.6015625
440699.587488166,-1.46484375,-44.921875,263.18359375,-25.390625
440699.595026083,34.66796875,-45.41015625,614.2578125,-25.390625
440699.598932333,1.46484375,-33.203125,23.4375,-20.5078125
440699.602838583,-26.85546875,-25.390625,-373.53515625,-11.23046875
440699.606744833,-5.37109375,-32.2265625,91.796875,-11.71875
440699.610651083,30.2734375,-44.43359375,514.16015625,-16.11328125
440699.614557333,15.625,-44.43359375,30.2734375,-10.7421875
440699.618463583,-23.92578125,-26.85546875,-629.8828125,-14.16015625
440699.622369833,-17.08984375,-10.25390625,-358.88671875,-19.53125
440699.626276083,25.390625,0.0,312.98828125,-3.90625
440699.630182333,31.25,-5.37109375,-148.4375,13.671875
440699.634088583,-22.94921875,-3.41796875,-545.41015625,13.671875
440699.637994833,-33.203125,2.44140625,-146.484375,1.953125
440699.64514725,10.7421875,5.859375,179.19921875,3.41796875
440699.6490535,36.1328125,9.765625,424.8046875,1.46484375
440699.65295975,-4.39453125,4.39453125,173.33984375,-14.6484375
440699.656866,-42.48046875,3.41796875,-296.38671875,-17.08984375
440699.66077225,-10.7421875,18.5546875,-115.234375,-21.484375
440699.6646785,20.01953125,25.390625,177.734375,-21.484375
440699.66858475,-8.30078125,20.01953125,90.33203125,-1.46484375
440699.672491,-40.52734375,10.25390625,-111.328125,-3.41796875
440699.67639725,-19.04296875,1.953125,-457.51953125,-2.9296875
440699.6803035,10.7421875,0.48828125,-303.7109375,-0.48828125
440699.68420975,15.13671875,1.953125,373.53515625,-7.8125
440699.688116,-15.625,0.0,50.78125,-2.9296875
440699.693475958,-25.87890625,1.46484375,-464.84375,-15.13671875
440699.697382208,16.11328125,4.8828125,74.21875,-25.390625
440699.701288458,25.390625,3.90625,636.71875,-10.25390625
440699.705194708,-8.30078125,2.9296875,82.51953125,5.37109375
440699.709100958,-19.53125,5.859375,-402.34375,0.0
440699.713007208,18.5546875,10.25390625,-47.36328125,-15.13671875
440699.716913458,50.78125,17.578125,400.390625,-14.6484375
440699.720819708,11.23046875,7.8125,113.76953125,-4.39453125
440699.724725958,-30.2734375,-10.25390625,-717.7734375,3.41796875
440699.728632208,-0.48828125,-2.9296875,-224.609375,-3.41796875
440699.732538458,44.43359375,7.8125,735.3515625,4.8828125
440699.736444708,34.66796875,0.48828125,181.15234375,22.4609375
440699.742612791,-2.44140625,-11.23046875,-655.2734375,11.23046875
440699.746519041,5.37109375,-13.18359375,-135.7421875,-10.25390625
440699.750425291,41.015625,-9.27734375,631.8359375,-2.9296875
440699.754331541,32.2265625,-12.20703125,359.375,6.34765625
440699.758237791,-15.625,-16.11328125,-321.77734375,12.20703125
440699.762144041,-20.01953125,-20.5078125,-429.6875,5.37109375
440699.766050291,32.2265625,-15.625,66.40625,-10.7421875
440699.769956541,45.8984375,-16.6015625,29.296875,2.44140625
440699.773862791,3.41796875,-17.08984375,-647.94921875,15.625
440699.777769041,-18.06640625,-7.8125,-340.8203125,-6.8359375
440699.781675291,11.71875,-11.71875,322.265625,-17.08984375
440699.785581541,37.109375,-15.13671875,494.62890625,-7.32421875
440699.767789,6.34765625,-16.6015625,223.6328125,-9.27734375
440699.77169525,-28.80859375,-17.578125,-111.328125,-19.04296875
440699.7756015,0.9765625,-20.99609375,-106.93359375,-32.71484375
440699.77950775,39.55078125,-22.94921875,189.94140625,-43.9453125
440699.783414,17.578125,-26.3671875,278.3203125,-32.2265625
440699.78732025,-23.92578125,-26.85546875,-259.765625,-26.85546875
440699.7912265,-22.4609375,-26.85546875,-447.265625,-27.34375
440699.79513275,16.6015625,-29.296875,-168.45703125,-31.73828125
440699.799039,32.2265625,-27.34375,176.26953125,-21.97265625
440699.80294525,-10.7421875,-33.203125,148.4375,-17.08984375
440699.8068515,-27.83203125,-29.78515625,-269.04296875,-21.484375
440699.81075775,18.5546875,-16.6015625,100.09765625,-24.4140625
440699.816627125,44.43359375,-18.06640625,662.59765625,-19.04296875
440699.820533375,0.0,-30.76171875,289.55078125,-7.32421875
440699.824439625,-33.69140625,-40.0390625,-384.27734375,-20.99609375
440699.828345875,0.0,-31.73828125,-40.52734375,-29.296875
440699.832252125,28.3203125,-19.04296875,591.30859375,-24.90234375
440699.836158375,-6.8359375,-21.97265625,125.0,-26.3671875
440699.840064625,-41.9921875,-33.69140625,-751.46484375,-13.18359375
440699.843970875,-12.6953125,-33.69140625,-853.515625,-2.9296875
440699.847877125,20.01953125,-29.296875,235.83984375,-14.6484375
440699.851783375,3.41796875,-44.43359375,329.58984375,-13.18359375
440699.855689625,-33.69140625,-44.921875,-434.08203125,-6.8359375
440699.859595875,-32.71484375,-30.76171875,-208.0078125,-13.671875
440699.8847985,6.8359375,-28.3203125,565.4296875,-19.53125
440699.88870475,22.4609375,-37.59765625,601.07421875,-20.99609375
440699.892611,-12.6953125,-36.62109375,-147.94921875,-7.32421875
440699.89651725,-34.1796875,-20.5078125,-261.71875,1.46484375
440699.9004235,8.30078125,-17.578125,350.5859375,-5.37109375
440699.90432975,31.25,-34.66796875,466.30859375,-6.8359375
440699.908236,-10.7421875,-48.33984375,-434.5703125,6.8359375
440699.91214225,-46.875,-38.0859375,-853.02734375,0.48828125
440699.9160485,-27.83203125,-25.87890625,17.578125,-29.296875
440699.91995475,11.23046875,-36.1328125,511.71875,-24.90234375
440699.923861,-2.9296875,-37.59765625,3.90625,0.48828125
440699.92776725,-35.64453125,-20.5078125,-276.85546875,-2.44140625
440699.935173833,-13.18359375,-13.671875,59.08203125,-28.3203125
440699.939080083,30.2734375,-10.25390625,440.4296875,-21.97265625
440699.942986333,24.90234375,-4.8828125,352.5390625,6.34765625
440699.946892583,-7.8125,0.48828125,-8.7890625,9.765625
440699.950798833,-14.16015625,4.39453125,-99.12109375,3.41796875
440699.954705083,20.99609375,-3.41796875,-22.94921875,-5.859375
440699.958611333,41.9921875,-2.9296875,28.3203125,13.18359375
440699.962517583,8.7890625,5.859375,3.90625,27.83203125
440699.966423833,-5.859375,1.46484375,-167.96875,2.9296875
440699.970330083,20.5078125,0.48828125,-98.6328125,-7.32421875
440699.974236333,39.0625,4.8828125,77.63671875,0.9765625
440699.978142583,18.06640625,3.90625,107.421875,5.37109375
440699.959110708,-11.23046875,-7.32421875,-195.3125,3.90625
440699.963016958,8.7890625,-7.8125,-235.83984375,-6.8359375
440699.966923208,40.52734375,-1.953125,312.01171875,-12.20703125
440699.970829458,15.13671875,-11.71875,470.703125,-0.9765625
440699.974735708,-25.87890625,-18.06640625,-119.62890625,6.8359375
440699.978641958,-15.13671875,-19.53125,-452.1484375,3.41796875
440699.982548208,20.99609375,-21.97265625,164.55078125,9.27734375
440699.986454458,16.6015625,-27.83203125,563.4765625,10.7421875
440699.990360708,-25.87890625,-45.41015625,-118.65234375,-8.7890625
440699.994266958,-26.3671875,-48.33984375,-694.3359375,-11.23046875
440699.998173208,10.7421875,-29.78515625,101.07421875,0.0
440700.002079458,15.625,-26.3671875,741.69921875,-7.32421875
440700.009652375,-16.11328125,-35.64453125,-41.9921875,-4.8828125
440700.013558625,-39.55078125,-39.55078125,-603.515625,-2.9296875
440700.017464875,-11.71875,-39.55078125,152.34375,-11.23046875
440700.021371125,27.83203125,-41.50390625,850.5859375,1.953125
440700.025277375,3.90625,-50.29296875,98.6328125,-8.30078125
440700.029183625,-35.64453125,-54.19921875,-897.94921875,-21.97265625
440700.033089875,-10.25390625,-41.015625,-328.125,-24.4140625
440700.036996125,29.78515625,-33.69140625,612.79296875,-29.78515625
440700.040902375,12.6953125,-38.0859375,19.04296875,-18.06640625
440700.044808625,-29.78515625,-45.41015625,-871.09375,-4.39453125
440700.048714875,-22.94921875,-32.71484375,-232.421875,-14.6484375
440700.052621125,27.34375,-25.390625,522.94921875,-7.32421875
440700.060348125,39.0625,-26.3671875,411.62109375,1.953125
440700.064254375,-13.671875,-27.34375,-98.6328125,-5.37109375
440700.068160625,-33.203125,-33.69140625,-230.95703125,-7.8125
440700.072066875,15.13671875,-32.71484375,43.45703125,-20.01953125
440700.075973125,32.71484375,-30.2734375,149.4140625,-25.390625
440700.079879375,2.44140625,-29.296875,-304.19921875,-14.6484375
440700.083785625,-18.5546875,-26.3671875,-442.3828125,-16.6015625
440700.087691875,4.8828125,-25.390625,103.02734375,-29.296875
440700.091598125,36.62109375,-24.90234375,84.9609375,-10.25390625
440700.095504375,-1.953125,-24.4140625,-52.734375,-5.37109375
440700.099410625,-45.8984375,-30.2734375,-105.46875,-27.83203125
440700.103316875,-23.4375,-31.25,-141.11328125,-19.04296875
440700.109978,12.20703125,-27.83203125,314.453125,-16.11328125
440700.11388425,1.46484375,-30.76171875,486.81640625,-7.8125
440700.1177905,-22.94921875,-35.15625,-4.8828125,7.32421875
440700.12169675,-19.53125,-33.203125,-285.64453125,2.44140625
440700.125603,5.37109375,-36.1328125,259.27734375,-10.25390625
440700.12950925,13.18359375,-44.921875,352.05078125,-9.765625
440700.1334155,-27.83203125,-46.875,-345.21484375,-1.953125
440700.13732175,-45.41015625,-49.31640625,-851.5625,-5.37109375
440700.141228,-9.27734375,-37.59765625,-627.44140625,-11.23046875
440700.14513425,19.53125,-23.4375,406.73828125,-11.71875
440700.1490405,-9.765625,-40.52734375,261.23046875,-12.6953125
440700.15294675,-48.33984375,-53.7109375,-437.98828125,-24.90234375
440700.160495041,-21.97265625,-51.7578125,51.26953125,-23.92578125
440700.164401291,15.13671875,-44.921875,782.71484375,-10.25390625
440700.168307541,-6.34765625,-42.96875,437.98828125,-6.34765625
440700.172213791,-37.59765625,-39.0625,-378.41796875,-4.8828125
440700.176120041,-13.671875,-29.78515625,-145.01953125,-5.37109375
440700.180026291,27.34375,-29.296875,448.2421875,-11.23046875
440700.183932541,18.06640625,-36.1328125,223.6328125,-16.6015625
440700.187838791,-18.5546875,-43.45703125,-572.75390625,-6.34765625
440700.191745041,-28.80859375,-40.0390625,-629.8828125,-3.90625
440700.195651291,2.9296875,-34.1796875,276.85546875,-16.6015625
440700.199557541,19.53125,-40.0390625,500.0,-12.20703125
440700.203463791,-25.390625,-50.29296875,-278.80859375,-4.8828125
440700.184867958,-47.36328125,-42.96875,-346.6796875,-23.92578125
440700.188774208,-6.8359375,-47.36328125,330.56640625,-31.73828125
440700.192680458,17.578125,-74.21875,534.66796875,-27.34375
440700.196586708,-10.25390625,-83.984375,75.1953125,-29.78515625
440700.200492958,-38.57421875,-79.1015625,-277.34375,-19.04296875
440700.204399208,-15.625,-74.70703125,-123.046875,-12.20703125
440700.208305458,25.87890625,-70.3125,-13.671875,-6.8359375
440700.212211708,5.37109375,-64.453125,-285.15625,7.8125
440700.216117958,-35.64453125,-59.5703125,-206.0546875,3.90625
440700.220024208,-34.1796875,-59.08203125,7.8125,-5.37109375
440700.223930458,2.9296875,-50.78125,424.31640625,-3.90625
440700.227836708,19.53125,-45.41015625,355.95703125,-0.9765625
440700.257065458,-11.71875,-44.921875,-196.77734375,1.953125
440700.260971708,-25.390625,-46.875,-218.75,-3.41796875
440700.264877958,1.46484375,-50.29296875,89.35546875,1.953125
440700.268784208,18.5546875,-50.78125,385.7421875,5.37109375
440700.272690458,-18.5546875,-48.828125,79.58984375,13.671875
440700.276596708,-48.828125,-53.22265625,-465.8203125,1.953125
440700.280502958,-19.04296875,-61.5234375,-471.19140625,-13.18359375
440700.284409208,7.32421875,-57.6171875,255.859375,-4.8828125
440700.288315458,-24.90234375,-56.640625,354.98046875,2.9296875
440700.292221708,-60.05859375,-65.4296875,-529.78515625,1.46484375
440700.296127958,-32.2265625,-64.453125,-268.06640625,-6.34765625
440700.300034208,19.04296875,-62.5,616.2109375,-4.39453125
440700.307557875,15.625,-68.84765625,565.91796875,-0.48828125
440700.311464125,-24.4140625,-77.1484375,-312.98828125,-2.44140625
440700.315370375,-23.4375,-69.3359375,-597.65625,-5.37109375
440700.319276625,20.5078125,-51.26953125,341.30859375,8.30078125
440700.323182875,21.484375,-42.96875,695.3125,15.13671875
440700.327089125,-20.99609375,-48.828125,-373.046875,15.13671875
440700.330995375,-40.0390625,-50.78125,-865.234375,14.16015625
440700.334901625,-7.8125,-42.48046875,192.87109375,-8.7890625
440700.338807875,20.01953125,-44.43359375,824.70703125,-6.8359375
440700.342714125,-10.7421875,-50.78125,-181.640625,10.7421875
440700.346620375,-39.0625,-46.38671875,-820.80078125,-2.44140625
440700.350526625,-4.39453125,-38.57421875,84.47265625,-16.11328125
440700.357955125,15.625,-40.0390625,670.8984375,-10.7421875
440700.361861375,-15.625,-50.78125,221.6796875,1.953125
440700.365767625,-42.48046875,-63.96484375,-339.35546875,-11.23046875
440700.369673875,-20.99609375,-61.03515625,18.06640625,-14.16015625
440700.373580125,18.06640625,-52.24609375,562.01171875,3.90625
440700.377486375,14.6484375,-45.8984375,163.57421875,-11.71875
440700.381392625,-24.90234375,-48.828125,-592.7734375,-20.01953125
440700.385298875,-36.62109375,-44.921875,-435.546875,-9.765625
440700.389205125,6.8359375,-24.90234375,362.79296875,-11.23046875
440700.393111375,15.625,-25.390625,-41.50390625,-9.27734375
440700.397017625,-24.4140625,-22.94921875,-476.5625,-2.44140625
440700.400923875,-40.0390625,-18.06640625,-136.71875,-15.13671875
440700.3833405,0.0,-16.6015625,182.12890625,-21.484375
440700.38724675,27.34375,-18.5546875,449.21875,-19.04296875
440700.391153,-3.90625,-35.15625,196.77734375,-21.484375
440700.39505925,-36.62109375,-45.41015625,-173.828125,-18.5546875
440700.3989655,-19.53125,-40.0390625,-51.7578125,-17.08984375
440700.40287175,13.671875,-31.25,189.453125,-24.90234375
440700.406778,-3.90625,-21.97265625,141.11328125,-12.6953125
440700.41068425,-42.96875,-15.13671875,-300.78125,-0.9765625
440700.4145905,-41.9921875,-17.08984375,-665.52734375,1.953125
440700.41849675,-0.48828125,-20.99609375,-359.375,15.625
440700.422403,5.37109375,-17.578125,323.2421875,8.30078125
440700.42630925,-34.1796875,-20.5078125,-29.296875,0.0
440700.426110208,-30.2734375,-11.23046875,-397.4609375,-4.8828125
440700.430016458,24.4140625,1.46484375,355.95703125,2.9296875
440700.433922708,33.203125,1.953125,798.828125,2.44140625
440700.437828958,-12.6953125,-3.41796875,130.37109375,3.90625
440700.441735208,-40.52734375,-13.671875,-461.9140625,1.46484375
440700.445641458,-9.765625,-12.6953125,-93.75,-12.20703125
440700.449547708,11.71875,-5.859375,437.01171875,1.953125
440700.453453958,-15.625,-12.6953125,139.16015625,11.71875
440700.457360208,-41.50390625,-22.4609375,-777.34375,-3.41796875
440700.461266458,-28.80859375,-16.6015625,-351.07421875,-13.18359375
440700.465172708,6.8359375,-14.16015625,479.98046875,-5.37109375
440700.469078958,-0.48828125,-16.6015625,52.24609375,2.9296875
440700.4993065,-45.41015625,-25.390625,-604.00390625,2.44140625
440700.50321275,-40.0390625,-16.6015625,-165.52734375,-22.4609375
440700.507119,19.04296875,-11.71875,513.18359375,-16.6015625
440700.51102525,27.34375,-22.94921875,321.77734375,-4.39453125
440700.5149315,-23.92578125,-29.78515625,-216.796875,-20.99609375
440700.51883775,-45.41015625,-23.92578125,-455.078125,-25.87890625
440700.522744,-4.39453125,-5.859375,50.78125,-24.90234375
440700.52665025,16.11328125,-6.34765625,112.3046875,-3.90625
440700.5305565,-16.6015625,-0.48828125,-547.8515625,1.46484375
440700.53446275,-41.9921875,11.71875,-328.61328125,-13.671875
440700.538369,-16.6015625,4.39453125,225.5859375,-13.671875
440700.54227525,20.01953125,-2.9296875,526.85546875,-5.37109375
440700.550125916,-5.37109375,-4.8828125,124.0234375,3.90625
440700.554032166,-48.33984375,0.0,-384.765625,-2.44140625
440700.557938416,-27.83203125,3.41796875,-24.90234375,-6.8359375
440700.561844666,7.32421875,-4.8828125,365.72265625,-0.48828125
440700.565750916,2.44140625,-3.41796875,326.171875,9.765625
440700.569657166,-27.83203125,-1.953125,-238.28125,4.8828125
440700.573563416,-30.2734375,2.9296875,-421.875,-0.9765625
440700.577469666,-1.953125,9.765625,-35.64453125,0.48828125
440700.581375916,8.7890625,11.23046875,350.09765625,0.48828125
440700.585282166,-19.04296875,2.44140625,153.3203125,-7.8125
440700.589188416,-33.203125,-6.8359375,-393.5546875,-8.7890625
440700.593094666,-2.44140625,0.9765625,62.98828125,2.9296875
440700.574867083,23.92578125,4.39453125,732.421875,-2.44140625
440700.578773333,-8.7890625,0.48828125,333.0078125,-5.37109375
440700.582679583,-40.0390625,19.04296875,-380.859375,1.46484375
440700.586585833,-19.04296875,31.25,-221.6796875,-1.46484375
440700.590492083,5.37109375,13.671875,499.51171875,-2.44140625
440700.594398333,-10.25390625,-6.8359375,212.890625,-0.48828125
440700.598304583,-41.9921875,-26.3671875,-774.90234375,-9.27734375
440700.602210833,-36.62109375,-31.73828125,-675.78125,-13.18359375
440700.606117083,1.953125,-25.87890625,468.26171875,-12.6953125
440700.610023333,5.859375,-31.25,692.87109375,0.0
440700.613929583,-24.90234375,-33.203125,-437.5,11.71875
440700.617835833,-27.83203125,-20.5078125,-663.0859375,8.30078125
440700.639969083,9.765625,-5.859375,456.0546875,10.7421875
440700.643875333,10.7421875,-20.5078125,674.8046875,5.37109375
440700.647781583,-20.99609375,-32.71484375,-59.5703125,2.44140625
440700.651687833,-36.62109375,-40.52734375,-296.875,-0.48828125
440700.655594083,-14.6484375,-48.33984375,290.52734375,-18.06640625
440700.659500333,5.859375,-41.015625,477.05078125,6.8359375
440700.663406583,-20.01953125,-38.0859375,-474.12109375,13.671875
440700.667312833,-47.8515625,-29.296875,-870.60546875,-2.9296875
440700.671219083,-22.4609375,-18.5546875,139.16015625,-9.765625
440700.675125333,8.7890625,-24.90234375,589.35546875,-16.6015625
440700.679031583,-8.7890625,-23.4375,147.94921875,-15.13671875
440700.682937833,-37.109375,-12.20703125,-204.1015625,-20.5078125
440700.686551791,-31.73828125,-12.6953125,26.3671875,-15.13671875
440700.690458041,8.30078125,-16.6015625,453.61328125,10.25390625
440700.694364291,14.16015625,-15.13671875,396.97265625,4.8828125
440700.698270541,-33.203125,-14.6484375,-24.90234375,-24.4140625
440700.702176791,-47.8515625,-18.06640625,-105.95703125,-28.3203125
440700.706083041,-10.25390625,-24.4140625,-27.83203125,-16.6015625
440700.709989291,11.23046875,-27.83203125,-11.23046875,-4.39453125
440700.713895541,-19.04296875,-23.92578125,32.2265625,-6.34765625
440700.717801791,-36.1328125,-21.484375,-288.0859375,-16.11328125
440700.721708041,-7.32421875,-27.83203125,-374.51171875,-10.25390625
440700.725614291,15.13671875,-28.80859375,118.1640625,7.32421875
440700.729520541,-2.9296875,-13.18359375,339.35546875,-3.41796875
440700.711893416,-27.34375,-9.765625,-228.02734375,-26.85546875
440700.715799666,-7.8125,-12.6953125,-162.59765625,-20.5078125
440700.719705916,24.4140625,-18.5546875,565.4296875,-8.7890625
440700.723612166,11.23046875,-36.62109375,582.51953125,-1.953125
440700.727518416,-26.85546875,-40.52734375,-171.38671875,2.44140625
440700.731424666,-25.390625,-38.0859375,-582.03125,4.39453125
440700.735330916,10.25390625,-37.59765625,75.1953125,7.8125
440700.739237166,14.16015625,-33.69140625,637.6953125,-3.41796875
440700.743143416,-20.5078125,-44.921875,-75.68359375,-7.8125
440700.747049666,-36.62109375,-53.22265625,-729.4921875,-6.34765625
440700.750955916,-0.9765625,-32.71484375,89.84375,-6.34765625
440700.754862166,29.296875,-29.296875,627.9296875,-2.9296875
440700.762272375,-2.44140625,-42.96875,-249.51171875,1.953125
440700.766178625,-29.78515625,-41.9921875,-737.79296875,4.39453125
440700.770084875,5.859375,-31.73828125,137.6953125,7.8125
440700.773991125,38.57421875,-33.69140625,763.18359375,25.87890625
440700.777897375,6.8359375,-41.015625,142.578125,20.99609375
440700.781803625,-40.0390625,-38.57421875,-662.109375,3.41796875
440700.785709875,-18.06640625,-35.64453125,-271.484375,-7.8125
440700.789616125,29.78515625,-43.45703125,708.984375,-17.578125
440700.793522375,22.4609375,-51.26953125,147.94921875,-3.41796875
440700.797428625,-19.04296875,-42.48046875,-832.03125,3.90625
440700.801334875,-26.3671875,-36.1328125,-239.2578125,-12.20703125
440700.805241125,12.6953125,-44.43359375,501.953125,-2.44140625
440700.832821583,22.94921875,-45.8984375,505.37109375,3.41796875
440700.836727833,-16.11328125,-53.22265625,-97.16796875,-10.7421875
440700.840634083,-44.43359375,-59.5703125,-440.91796875,-13.671875
440700.844540333,-9.765625,-43.45703125,175.78125,-10.7421875
440700.848446583,17.578125,-43.45703125,405.2734375,-13.18359375
440700.852352833,-19.04296875,-50.29296875,-260.7421875,-15.625
440700.856259083,-42.96875,-43.45703125,-532.71484375,-6.8359375
440700.860165333,-18.06640625,-47.36328125,34.66796875,-5.37109375
440700.864071583,15.625,-52.734375,137.20703125,0.9765625
440700.867977833,2.9296875,-43.45703125,33.69140625,-3.41796875
440700.871884083,-32.71484375,-51.26953125,-59.08203125,-22.4609375
440700.875790333,-21.484375,-60.05859375,-191.40625,-19.04296875
440700.855815125,15.13671875,-53.22265625,360.83984375,0.0
440700.859721375,16.11328125,-52.24609375,626.46484375,-2.44140625
440700.863627625,-12.6953125,-47.8515625,27.83203125,-8.7890625
440700.867533875,-21.484375,-40.0390625,-350.5859375,-4.8828125
440700.871440125,13.671875,-36.1328125,99.609375,-8.7890625
440700.875346375,32.71484375,-42.48046875,323.2421875,-9.27734375
440700.879252625,-1.46484375,-46.875,-208.49609375,-7.32421875
440700.883158875,-17.08984375,-43.9453125,-840.33203125,6.34765625
440700.887065125,6.8359375,-38.0859375,-452.1484375,0.48828125
440700.890971375,31.25,-29.78515625,591.30859375,0.0
440700.894877625,5.859375,-25.390625,413.0859375,2.9296875
440700.898783875,-29.296875,-34.66796875,-621.58203125,-16.11328125
440700.906102416,6.8359375,-25.390625,-415.0390625,-11.23046875
440700.910008666,42.48046875,-10.25390625,661.62109375,3.41796875
440700.913914916,28.3203125,-23.4375,450.1953125,11.23046875
440700.917821166,-10.7421875,-38.57421875,-270.5078125,-2.9296875
440700.921727416,-9.765625,-30.2734375,-116.2109375,-14.6484375
440700.925633666,33.203125,-13.18359375,394.04296875,0.48828125
440700.929539916,31.25,-3.90625,281.73828125,18.5546875
440700.933446166,-11.23046875,-4.8828125,-656.73828125,18.5546875
440700.937352416,-12.20703125,0.9765625,-737.79296875,-1.46484375
440700.941258666,32.2265625,2.9296875,479.00390625,-11.71875
440700.945164916,43.45703125,-11.71875,671.875,-0.9765625
440700.949071166,13.18359375,-16.6015625,-67.3828125,12.20703125
440700.956570916,-14.16015625,-14.16015625,-274.4140625,5.859375
440700.960477166,3.90625,-7.32421875,338.37890625,3.90625
440700.964383416,31.25,-4.39453125,596.19140625,3.41796875
440700.968289666,12.20703125,-4.8828125,140.625,-5.859375
440700.972195916,-22.4609375,-8.7890625,-250.9765625,0.48828125
440700.976102166,-0.48828125,-2.9296875,-145.99609375,2.44140625
440700.980008416,36.62109375,4.39453125,-1.953125,9.27734375
440700.983914666,25.390625,3.41796875,-199.70703125,17.08984375
440700.987820916,-5.859375,3.41796875,-160.64453125,10.7421875
440700.991727166,-11.23046875,-6.8359375,-68.84765625,0.48828125
440700.995633416,17.08984375,-7.8125,114.2578125,8.7890625
440700.999539666,19.04296875,-9.27734375,316.89453125,16.11328125
440701.005816625,-19.04296875,-14.6484375,118.1640625,9.765625
440701.009722875,-21.97265625,-17.08984375,-238.28125,14.6484375
440701.013629125,18.06640625,-17.08984375,98.6328125,13.18359375
440701.017535375,31.73828125,-8.30078125,609.375,12.6953125
440701.021441625,4.39453125,-8.30078125,220.703125,5.37109375
440701.025347875,-23.92578125,-12.6953125,-486.81640625,-20.5078125
440701.029254125,-3.90625,-7.8125,-589.35546875,-14.6484375
440701.033160375,27.83203125,-4.39453125,151.85546875,-8.30078125
440701.037066625,18.5546875,-9.27734375,486.328125,2.9296875
440701.040972875,-12.20703125,-15.625,-290.52734375,3.41796875
440701.044879125,-8.30078125,-17.578125,-271.97265625,-10.7421875
440701.048785375,33.69140625,-23.92578125,596.6796875,-2.9296875
440701.051885708,32.71484375,-22.4609375,467.28515625,-1.46484375
440701.055791958,-10.7421875,-25.390625,-556.15234375,-2.44140625
440701.059698208,-24.4140625,-20.99609375,-650.390625,-1.46484375
440701.063604458,9.27734375,-4.39453125,429.19921875,-9.27734375
440701.067510708,28.80859375,-11.23046875,722.65625,-9.765625
440701.071416958,-3.90625,-28.80859375,-362.79296875,-3.41796875
440701.075323208,-31.25,-24.90234375,-812.01171875,-8.30078125
440701.079229458,-5.859375,-15.13671875,246.58203125,-6.8359375
440701.083135708,12.6953125,-13.671875,820.80078125,-0.48828125
440701.087041958,-11.23046875,-18.06640625,-124.0234375,-3.90625
440701.090948208,-26.85546875,-16.6015625,-700.68359375,-0.9765625
440701.094854458,-14.6484375,-15.625,132.8125,-13.18359375
440701.100706333,17.578125,-16.11328125,666.50390625,-3.90625
440701.104612583,17.578125,-17.08984375,241.2109375,0.48828125
440701.108518833,-26.3671875,-25.87890625,-323.2421875,-25.87890625
440701.112425083,-22.94921875,-27.83203125,-233.88671875,-25.390625
440701.116331333,13.671875,-26.3671875,420.8984375,-15.13671875
440701.120237583,11.23046875,-32.71484375,-24.90234375,-0.48828125
440701.124143833,-32.71484375,-38.57421875,-750.48828125,-8.7890625
440701.128050083,-43.45703125,-43.9453125,-271.484375,-30.2734375
440701.131956333,-11.23046875,-50.29296875,303.22265625,-22.94921875
440701.135862583,9.765625,-55.17578125,188.4765625,-4.39453125
440701.139768833,-22.4609375,-51.7578125,-119.140625,-10.25390625
440701.143675083,-61.03515625,-45.41015625,-122.0703125,-22.4609375
440701.151348666,-34.66796875,-45.8984375,72.265625,-18.5546875
440701.155254916,1.953125,-51.7578125,438.96484375,-18.5546875
440701.159161166,-23.4375,-54.19921875,328.61328125,-18.5546875
440701.163067416,-55.6640625,-51.26953125,-146.484375,-11.23046875
440701.166973666,-29.78515625,-48.33984375,-122.55859375,-14.6484375
440701.170879916,3.41796875,-41.50390625,174.31640625,-16.11328125
440701.174786166,-11.23046875,-40.52734375,7.32421875,-14.16015625
440701.178692416,-39.55078125,-39.55078125,-357.91015625,-15.625
440701.182598666,-21.97265625,-42.96875,-528.3203125,0.0
440701.186504916,19.53125,-42.96875,-375.9765625,3.41796875
440701.190411166,11.71875,-23.92578125,310.05859375,-7.8125
440701.194317416,-21.97265625,-24.90234375,23.4375,-4.8828125
440701.198342666,-22.4609375,-27.34375,-426.7578125,-10.25390625
440701.202248916,22.4609375,-13.18359375,248.046875,-0.9765625
440701.206155166,49.31640625,-13.671875,756.34765625,25.87890625
440701.210061416,6.34765625,-30.76171875,100.09765625,9.765625
440701.213967666,-24.90234375,-31.73828125,-497.55859375,-16.6015625
440701.217873916,4.39453125,-26.3671875,-165.0390625,-9.27734375
440701.221780166,27.83203125,-15.13671875,433.10546875,-5.37109375
440701.225686416,0.9765625,-12.6953125,198.2421875,-6.8359375
440701.229592666,-40.0390625,-20.99609375,-809.5703125,-1.46484375
440701.233498916,-27.34375,-10.25390625,-519.53125,0.0
440701.237405166,20.01953125,-7.8125,664.55078125,-4.8828125
440701.241311416,24.4140625,-29.296875,453.61328125,-8.30078125
440701.218943125,-24.90234375,-39.55078125,-649.4140625,-1.953125
440701.222849375,-32.71484375,-31.25,-397.94921875,0.9765625
440701.226755625,14.6484375,-30.76171875,583.0078125,4.8828125
440701.230661875,20.5078125,-28.80859375,520.5078125,5.37109375
440701.234568125,-15.625,-32.71484375,-186.03515625,-6.8359375
440701.238474375,-29.296875,-37.59765625,-538.57421875,-22.94921875
440701.242380625,-3.41796875,-27.34375,3.90625,-21.484375
440701.246286875,13.671875,-28.80859375,178.7109375,-11.23046875
440701.250193125,-12.20703125,-34.66796875,-458.49609375,1.46484375
440701.254099375,-36.1328125,-28.3203125,-331.0546875,0.0
440701.258005625,-6.34765625,-22.4609375,171.38671875,-8.30078125
440701.261911875,34.66796875,-23.92578125,440.4296875,3.90625
440701.265971416,20.01953125,-30.76171875,268.5546875,-5.37109375
440701.269877666,-25.87890625,-32.71484375,-119.140625,-20.5078125
440701.273783916,-18.06640625,-25.87890625,-52.24609375,-19.53125
440701.277690166,25.390625,-22.94921875,381.8359375,-11.23046875
440701.281596416,29.78515625,-36.62109375,447.75390625,2.44140625
440701.285502666,6.34765625,-46.38671875,-238.76953125,-4.8828125
440701.289408916,-2.44140625,-40.52734375,-519.04296875,-1.46484375
440701.293315166,20.5078125,-38.0859375,-179.19921875,0.9765625
440701.297221416,35.15625,-34.66796875,219.23828125,-12.6953125
440701.301127666,0.9765625,-30.2734375,198.73046875,-11.71875
440701.305033916,-27.83203125,-34.66796875,-313.96484375,-7.32421875
440701.308940166,7.8125,-31.25,54.19921875,-7.32421875
440701.31266825,41.50390625,-19.53125,725.5859375,-10.25390625
440701.3165745,18.06640625,-18.06640625,270.01953125,-6.34765625
440701.32048075,-20.5078125,-29.78515625,-675.78125,-6.34765625
440701.324387,0.48828125,-27.34375,-413.57421875,-0.9765625
440701.32829325,49.31640625,-20.5078125,584.9609375,-2.9296875
440701.3321995,23.92578125,-33.203125,253.90625,-23.92578125
440701.33610575,-20.5078125,-41.9921875,-756.34765625,-18.5546875
440701.340012,-10.25390625,-28.80859375,-699.70703125,-7.8125
440701.34391825,27.34375,-19.04296875,491.69921875,-8.7890625
440701.3478245,29.296875,-26.85546875,703.125,-11.23046875
440701.35173075,-15.13671875,-33.203125,-207.51953125,-20.99609375
440701.355637,-18.5546875,-24.90234375,-393.06640625,-8.30078125
440701.380767333,19.53125,-23.92578125,452.63671875,8.7890625
440701.384673583,44.43359375,-41.015625,711.42578125,7.32421875
440701.388579833,15.13671875,-50.29296875,-66.40625,-5.859375
440701.392486083,-17.578125,-52.24609375,-369.140625,-4.39453125
440701.396392333,10.7421875,-50.29296875,80.078125,6.34765625
440701.400298583,29.78515625,-46.38671875,353.515625,4.8828125
440701.404204833,0.9765625,-49.8046875,-434.08203125,15.13671875
440701.408111083,-32.71484375,-41.015625,-876.953125,20.99609375
440701.412017333,-9.765625,-24.4140625,2.44140625,8.7890625
440701.415923583,36.62109375,-31.73828125,510.25390625,18.06640625
440701.419829833,29.296875,-38.0859375,328.125,32.71484375
440701.423736083,-15.625,-27.83203125,-115.72265625,10.7421875
440701.431277541,-20.5078125,-25.390625,-19.04296875,-6.34765625
440701.435183791,11.71875,-25.390625,411.1328125,7.32421875
440701.439090041,21.484375,-23.92578125,420.8984375,8.30078125
440701.442996291,-16.11328125,-28.80859375,68.359375,-7.32421875
440701.446902541,-30.2734375,-29.296875,-94.7265625,-12.20703125
440701.450808791,2.44140625,-36.62109375,2.9296875,-0.9765625
440701.454715041,18.06640625,-40.52734375,49.31640625,14.16015625
440701.458621291,-4.39453125,-40.0390625,-97.16796875,9.765625
440701.462527541,-34.1796875,-46.875,-250.9765625,-10.25390625
440701.466433791,-13.18359375,-42.48046875,-212.40234375,-13.18359375
440701.470340041,22.94921875,-26.3671875,150.87890625,-14.6484375
440701.474246291,3.90625,-17.578125,378.90625,-15.13671875
440701.476390916,-34.1796875,-26.3671875,-201.171875,-8.30078125
440701.480297166,-23.4375,-27.34375,-160.64453125,0.0
440701.484203416,10.25390625,-20.99609375,567.87109375,6.34765625
440701.488109666,4.39453125,-22.94921875,641.6015625,-1.953125
440701.492015916,-17.578125,-29.296875,-105.95703125,-5.37109375
440701.495922166,-17.08984375,-29.78515625,-548.33984375,-1.46484375
440701.499828416,12.20703125,-20.5078125,92.28515625,3.41796875
440701.503734666,29.296875,-18.06640625,677.734375,3.90625
440701.507640916,-8.30078125,-32.71484375,-9.27734375,14.16015625
440701.511547166,-26.3671875,-42.48046875,-844.7265625,5.37109375
440701.515453416,3.41796875,-32.71484375,-196.77734375,-11.71875
440701.519359666,24.90234375,-22.4609375,756.8359375,-9.27734375
440701.526963125,4.8828125,-31.73828125,86.42578125,-0.9765625
440701.530869375,-20.99609375,-34.1796875,-747.0703125,7.8125
440701.534775625,-3.41796875,-17.578125,-40.52734375,8.30078125
440701.538681875,23.92578125,-18.5546875,741.2109375,1.46484375
440701.542588125,-1.953125,-34.66796875,248.046875,-7.32421875
440701.546494375,-36.1328125,-37.109375,-673.33984375,-4.8828125
440701.550400625,-16.6015625,-27.34375,-515.625,13.18359375
440701.554306875,15.13671875,-20.01953125,468.26171875,14.16015625
440701.558213125,0.0,-30.2734375,142.08984375,2.9296875
440701.562119375,-36.62109375,-38.0859375,-796.38671875,-1.953125
440701.566025625,-33.203125,-22.94921875,-265.13671875,-6.34765625
440701.569931875,12.20703125,-17.578125,465.33203125,-9.765625
440701.573003458,28.80859375,-22.4609375,388.671875,-2.44140625
440701.576909708,-9.27734375,-20.5078125,-80.078125,-6.34765625
440701.580815958,-43.9453125,-24.4140625,-168.45703125,-20.99609375
440701.584722208,-27.34375,-22.4609375,291.9921875,-10.25390625
440701.588628458,4.8828125,-14.6484375,413.57421875,0.48828125
440701.592534708,-15.625,-13.18359375,-208.0078125,4.8828125
440701.596440958,-44.921875,-14.6484375,-534.66796875,2.44140625
440701.600347208,-16.6015625,-14.16015625,-60.05859375,-4.39453125
440701.604253458,20.99609375,-20.99609375,93.26171875,3.41796875
440701.608159708,4.39453125,-27.83203125,22.94921875,1.46484375
440701.612065958,-40.0390625,-30.76171875,-65.91796875,-0.9765625
440701.615972208,-41.9921875,-25.390625,-187.01171875,5.37109375
440701.598164791,5.859375,-17.08984375,325.68359375,6.34765625
440701.602071041,12.20703125,-17.08984375,627.9296875,2.9296875
440701.605977291,-37.109375,-26.3671875,29.78515625,-6.34765625
440701.609883541,-41.50390625,-23.92578125,-622.0703125,-13.18359375
440701.613789791,0.0,-13.18359375,-152.83203125,2.9296875
440701.617696041,14.6484375,-17.08984375,385.25390625,12.20703125
440701.621602291,-18.5546875,-28.3203125,-156.73828125,5.37109375
440701.625508541,-50.78125,-42.48046875,-849.12109375,8.30078125
440701.629414791,-26.3671875,-31.73828125,-515.13671875,-0.9765625
440701.633321041,15.625,-20.5078125,625.9765625,-11.23046875
440701.637227291,1.46484375,-29.78515625,431.640625,-15.13671875
440701.641133541,-29.296875,-33.203125,-365.234375,-16.11328125
440701.64905325,-11.23046875,-36.62109375,-73.73046875,-7.32421875
440701.6529595,23.92578125,-37.109375,747.55859375,-5.37109375
440701.65686575,15.13671875,-39.0625,558.10546875,3.90625
440701.660772,-19.04296875,-36.1328125,-264.16015625,1.46484375
440701.66467825,-10.25390625,-16.6015625,-184.08203125,-9.765625
440701.6685845,29.296875,-6.8359375,365.234375,-9.27734375
440701.67249075,39.0625,-9.765625,369.62890625,0.9765625
440701.676397,0.9765625,-12.6953125,-575.68359375,5.37109375
440701.68030325,-28.3203125,-5.859375,-772.4609375,1.953125
440701.6842095,1.953125,-5.37109375,389.16015625,-4.39453125
440701.68811575,33.69140625,-14.6484375,616.69921875,-0.9765625
440701.692022,2.9296875,-12.20703125,19.53125,3.90625
440701.699468958,-33.203125,-7.32421875,-178.7109375,6.8359375
440701.703375208,-1.46484375,-1.953125,305.6640625,12.20703125
440701.707281458,41.50390625,-11.23046875,603.515625,20.5078125
440701.711187708,17.578125,-25.390625,222.16796875,17.08984375
440701.715093958,-22.4609375,-29.296875,-146.484375,-4.39453125
440701.719000208,-10.25390625,-26.3671875,-115.72265625,-13.18359375
440701.722906458,19.53125,-22.94921875,30.76171875,0.48828125
440701.726812708,7.8125,-23.4375,-166.50390625,12.6953125
440701.730718958,-37.109375,-19.53125,-397.4609375,12.6953125
440701.734625208,-44.921875,-18.06640625,-269.53125,6.8359375
440701.738531458,0.9765625,-20.5078125,147.94921875,4.39453125
440701.742437708,16.11328125,-25.390625,384.27734375,-5.37109375
440701.74465825,-18.06640625,-32.2265625,151.85546875,-1.953125
440701.7485645,-37.59765625,-41.9921875,-223.6328125,-4.39453125
440701.75247075,-11.71875,-51.26953125,112.3046875,-15.625
440701.756377,7.32421875,-60.546875,561.5234375,-9.27734375
440701.76028325,-27.83203125,-69.82421875,319.82421875,-3.90625
440701.7641895,-59.5703125,-67.3828125,-393.06640625,-16.6015625
440701.76809575,-34.1796875,-54.19921875,-596.6796875,-14.6484375
440701.772002,-17.08984375,-55.17578125,229.98046875,-23.4375
440701.77590825,-33.69140625,-62.5,593.75,-39.0625
440701.7798145,-68.359375,-67.3828125,-190.91796875,-40.0390625
440701.78372075,-64.453125,-76.171875,-326.66015625,-46.38671875
440701.787627,-18.5546875,-76.171875,341.796875,-33.69140625
440701.792974041,-11.71875,-78.61328125,645.01953125,-5.859375
440701.796880291,-47.8515625,-85.44921875,-190.4296875,-3.90625
440701.800786541,-50.29296875,-73.2421875,-661.62109375,-11.23046875
440701.804692791,-0.48828125,-53.7109375,336.9140625,-10.7421875
440701.808599041,13.18359375,-59.5703125,815.91796875,-3.90625
440701.812505291,-20.5078125,-75.1953125,-256.34765625,3.41796875
440701.816411541,-41.50390625,-71.2890625,-835.9375,6.34765625
440701.820317791,-5.37109375,-53.22265625,212.890625,9.765625
440701.824224041,15.13671875,-52.734375,777.34375,9.765625
440701.828130291,-32.71484375,-59.5703125,96.19140625,-1.953125
440701.832036541,-53.7109375,-54.6875,-407.71484375,-11.71875
440701.835942791,-21.484375,-47.36328125,136.71875,-20.99609375
440701.84090625,1.953125,-54.19921875,668.45703125,-14.6484375
440701.8448125,-17.578125,-59.08203125,158.69140625,-4.39453125
440701.84871875,-55.17578125,-46.875,-443.359375,-14.6484375
440701.852625,-47.8515625,-34.66796875,-89.35546875,-18.5546875
440701.85653125,-5.859375,-33.203125,567.87109375,-17.08984375
440701.8604375,5.37109375,-40.0390625,-34.66796875,0.9765625
440701.86434375,-31.73828125,-38.0859375,-746.09375,-0.9765625
440701.86825,-41.9921875,-37.109375,-215.8203125,-20.5078125
440701.87215625,10.7421875,-36.62109375,325.68359375,3.90625
440701.8760625,25.390625,-38.0859375,356.93359375,9.765625
440701.87996875,-12.6953125,-43.45703125,-7.8125,-11.71875
440701.883875,-28.80859375,-42.96875,-205.56640625,-6.34765625
440701.89145175,-7.32421875,-43.45703125,81.0546875,-9.765625
440701.895358,13.18359375,-46.875,458.984375,-14.6484375
440701.89926425,-16.6015625,-51.26953125,342.28515625,-9.27734375
440701.9031705,-52.734375,-53.7109375,-155.76171875,-12.20703125
440701.90707675,-35.15625,-51.26953125,-360.3515625,-10.7421875
440701.910983,10.7421875,-46.875,-87.40234375,0.9765625
440701.91488925,4.8828125,-39.55078125,192.3828125,0.9765625
440701.9187955,-30.2734375,-44.43359375,-62.98828125,-5.859375
440701.92270175,-28.3203125,-49.31640625,-567.3828125,-5.37109375
440701.926608,5.859375,-33.203125,-226.07421875,-0.48828125
440701.93051425,15.625,-23.4375,608.3984375,6.34765625
440701.9344205,-24.90234375,-24.4140625,111.81640625,0.48828125
440701.942129666,-36.1328125,-12.6953125,-417.48046875,-7.8125
440701.946035916,8.7890625,-6.34765625,172.36328125,-2.9296875
440701.949942166,33.69140625,-3.41796875,796.875,6.34765625
440701.953848416,1.953125,-9.765625,290.0390625,2.9296875
440701.957754666,-22.4609375,-19.04296875,-467.28515625,4.8828125
440701.961660916,2.9296875,-16.11328125,-175.78125,7.8125
440701.965567166,32.71484375,-21.484375,377.9296875,3.90625
440701.969473416,11.71875,-37.109375,142.578125,-1.46484375
440701.973379666,-21.97265625,-50.78125,-812.01171875,-0.48828125
440701.977285916,-5.859375,-38.57421875,-611.81640625,1.46484375
440701.981192166,20.5078125,-27.34375,651.3671875,-6.8359375
440701.985098416,13.18359375,-35.64453125,479.98046875,5.859375
440701.992861,-10.7421875,-30.76171875,-265.625,0.48828125
440701.99676725,-12.6953125,-20.5078125,-100.09765625,-16.11328125
440702.0006735,25.87890625,-15.13671875,626.953125,-9.27734375
440702.00457975,40.52734375,-19.04296875,609.375,-2.9296875
440702.008486,1.953125,-24.90234375,-103.515625,-2.9296875
440702.01239225,-14.6484375,-29.296875,-502.9296875,-8.7890625
440702.0162985,16.6015625,-24.90234375,105.95703125,-11.71875
440702.02020475,26.85546875,-29.78515625,323.73046875,-6.34765625
440702.024111,-5.859375,-36.1328125,-435.05859375,-9.765625
440702.02801725,-35.64453125,-29.78515625,-520.99609375,-18.5546875
440702.0319235,-8.30078125,-25.390625,-44.921875,-12.20703125
440702.03582975,37.59765625,-15.625,325.1953125,5.37109375
440702.043365125,25.390625,-5.859375,191.89453125,16.6015625
440702.047271375,-2.44140625,-1.953125,-97.16796875,12.20703125
440702.051177625,9.765625,0.9765625,-111.81640625,10.25390625
440702.055083875,38.0859375,3.41796875,396.97265625,-0.9765625
440702.058990125,41.50390625,-1.953125,522.94921875,5.37109375
440702.062896375,8.7890625,-6.8359375,-203.61328125,5.37109375
440702.066802625,-9.27734375,-5.859375,-542.96875,-5.37109375
440702.070708875,21.484375,-5.37109375,-234.86328125,2.9296875
440702.074615125,40.0390625,-4.8828125,264.16015625,-0.9765625
440702.078521375,10.7421875,-8.30078125,273.92578125,2.44140625
440702.082427625,-16.11328125,-14.16015625,-305.17578125,3.90625
440702.086333875,17.578125,-12.6953125,-4.39453125,-7.32421875
440702.068723833,48.828125,-16.6015625,503.90625,-3.41796875
440702.072630083,10.25390625,-16.6015625,343.26171875,-4.8828125
440702.076536333,-29.296875,-20.5078125,-412.59765625,-8.30078125
440702.080442583,-11.23046875,-13.18359375,-410.64453125,-3.90625
440702.084348833,31.73828125,2.9296875,576.171875,9.765625
440702.088255083,21.97265625,-5.859375,368.1640625,10.7421875
440702.092161333,-18.5546875,-10.25390625,-657.71484375,6.34765625
440702.096067583,-19.04296875,2.44140625,-687.01171875,2.44140625
440702.099973833,25.390625,2.44140625,497.55859375,3.41796875
440702.103880083,38.0859375,-7.8125,705.078125,8.7890625
440702.107786333,-5.859375,-3.90625,-186.03515625,1.953125
440702.111692583,-12.20703125,3.41796875,-344.7265625,-2.44140625
440702.140125333,28.3203125,13.18359375,467.28515625,11.71875
440702.144031583,43.45703125,28.3203125,753.90625,25.87890625
440702.147937833,2.9296875,37.109375,-86.9140625,3.41796875
440702.151844083,-32.2265625,30.2734375,-557.6171875,-13.18359375
440702.155750333,5.37109375,30.2734375,125.48828125,-8.30078125
440702.159656583,30.76171875,21.484375,526.85546875,-4.8828125
440702.163562833,-4.39453125,3.90625,-370.1171875,5.37109375
440702.167469083,-26.85546875,10.7421875,-907.71484375,17.08984375
440702.171375333,-8.30078125,24.90234375,27.83203125,6.8359375
440702.175281583,18.5546875,19.53125,562.98828125,-0.48828125
440702.179187833,12.6953125,18.06640625,295.8984375,3.90625
440702.183094083,-26.3671875,18.5546875,-98.14453125,2.9296875
440702.185338583,-32.71484375,14.16015625,-82.03125,1.46484375
440702.189244833,8.7890625,14.16015625,364.74609375,0.0
440702.193151083,21.97265625,13.18359375,463.37890625,-1.46484375
440702.197057333,-8.7890625,6.8359375,17.08984375,2.9296875
440702.200963583,-16.11328125,3.41796875,-217.28515625,-3.41796875
440702.204869833,7.32421875,4.39453125,-81.0546875,0.9765625
440702.208776083,25.87890625,4.39453125,23.92578125,16.6015625
440702.212682333,12.20703125,8.30078125,-60.05859375,6.34765625
440702.216588583,-10.25390625,5.37109375,-133.7890625,-3.41796875
440702.220494833,7.32421875,0.9765625,-229.4921875,12.20703125
440702.224401083,41.015625,15.13671875,45.41015625,10.7421875
440702.228307333,26.85546875,15.13671875,453.125,-4.39453125
440702.233817375,-10.7421875,-0.9765625,-101.5625,-11.23046875
440702.237723625,-3.41796875,-6.8359375,-245.60546875,-12.6953125
440702.241629875,31.73828125,-0.48828125,446.77734375,-7.8125
440702.245536125,34.1796875,7.8125,631.34765625,-2.9296875
440702.249442375,-9.765625,0.9765625,-48.828125,5.37109375
440702.253348625,-20.5078125,1.46484375,-559.08203125,11.23046875
440702.257254875,22.4609375,17.08984375,56.640625,2.44140625
440702.261161125,42.96875,20.5078125,610.3515625,-2.44140625
440702.265067375,16.6015625,11.23046875,-104.00390625,-15.625
440702.268973625,-15.13671875,5.859375,-966.796875,-18.5546875
440702.272879875,14.16015625,4.8828125,-257.32421875,-16.11328125
440702.276786125,51.26953125,5.859375,819.3359375,-18.06640625
440702.259129416,12.20703125,-1.953125,170.8984375,-11.71875
440702.263035666,-8.30078125,-6.34765625,-487.79296875,0.48828125
440702.266941916,16.6015625,2.9296875,104.00390625,3.41796875
440702.270848166,49.8046875,7.8125,789.55078125,-9.27734375
440702.274754416,37.59765625,-2.9296875,355.46875,-3.41796875
440702.278660666,-6.34765625,-9.765625,-586.42578125,-10.7421875
440702.282566916,0.0,-3.90625,-407.71484375,-34.1796875
440702.286473166,33.69140625,-0.48828125,609.86328125,-18.5546875
440702.290379416,35.64453125,-13.671875,289.0625,8.30078125
440702.294285666,6.8359375,-19.04296875,-651.3671875,-4.8828125
440702.298191916,-11.23046875,-10.7421875,-374.0234375,-24.90234375
440702.302098166,15.13671875,-11.71875,158.69140625,-4.8828125
440702.326383666,34.1796875,-16.11328125,241.2109375,1.953125
440702.330289916,6.34765625,-14.16015625,-92.7734375,-16.6015625
440702.334196166,-15.625,-12.20703125,-168.9453125,-8.7890625
440702.338102416,7.8125,-10.25390625,182.12890625,-6.8359375
440702.342008666,35.15625,-8.30078125,528.3203125,-17.578125
440702.345914916,14.16015625,-18.5546875,27.34375,-15.13671875
440702.349821166,-24.4140625,-24.4140625,-453.125,-24.4140625
440702.353727416,-15.13671875,-27.34375,-41.015625,-37.109375
440702.357633666,17.08984375,-27.34375,68.84765625,-19.04296875
440702.361539916,7.32421875,-26.85546875,111.81640625,3.90625
440702.365446166,-26.3671875,-36.62109375,17.08984375,-10.7421875
440702.369352416,-26.85546875,-36.62109375,-207.51953125,-26.3671875
440702.35189825,19.04296875,-28.3203125,287.59765625,-17.578125
440702.3558045,30.76171875,-25.87890625,429.19921875,-6.8359375
440702.35971075,-0.9765625,-23.4375,-54.6875,-4.8828125
440702.363617,-10.25390625,-23.92578125,-451.66015625,-5.859375
440702.36752325,23.92578125,-20.01953125,-107.421875,1.46484375
440702.3714295,40.52734375,-15.625,387.6953125,6.34765625
440702.37533575,-4.39453125,-23.92578125,-92.7734375,2.44140625
440702.379242,-37.59765625,-36.1328125,-787.109375,-2.44140625
440702.38314825,-11.71875,-33.69140625,-539.0625,0.0
440702.3870545,27.34375,-25.390625,535.64453125,0.48828125
440702.39096075,14.6484375,-32.71484375,439.94140625,-8.30078125
440702.394867,-25.390625,-37.109375,-363.28125,-9.765625
440702.398170875,-12.6953125,-26.85546875,-121.09375,-2.9296875
440702.402077125,24.4140625,-22.94921875,720.703125,6.8359375
440702.405983375,29.296875,-21.97265625,623.046875,15.13671875
440702.409889625,-6.34765625,-24.90234375,-279.78515625,5.859375
440702.413795875,-14.16015625,-24.4140625,-512.20703125,-5.37109375
440702.417702125,21.484375,-22.4609375,85.9375,-6.34765625
440702.421608375,35.64453125,-23.4375,367.1875,5.859375
440702.425514625,1.953125,-29.296875,-507.32421875,15.625
440702.429420875,-19.04296875,-23.4375,-821.77734375,5.37109375
440702.433327125,22.4609375,-3.41796875,380.37109375,16.11328125
440702.437233375,38.0859375,-13.671875,737.3046875,21.484375
440702.441139625,-5.37109375,-34.66796875,101.5625,4.39453125
440702.448783958,-33.203125,-45.41015625,-172.8515625,-5.859375
440702.452690208,-10.7421875,-42.48046875,256.8359375,-4.8828125
440702.456596458,26.85546875,-37.59765625,590.33203125,11.23046875
440702.460502708,20.99609375,-35.64453125,261.71875,6.8359375
440702.464408958,-12.6953125,-34.66796875,-161.1328125,4.8828125
440702.468315208,-8.30078125,-32.2265625,-203.125,9.27734375
440702.472221458,37.59765625,-26.85546875,-12.20703125,8.30078125
440702.476127708,34.66796875,-24.4140625,-350.5859375,20.99609375
440702.480033958,-18.06640625,-16.11328125,-344.7265625,9.27734375
440702.483940208,-19.53125,-13.18359375,-57.6171875,-12.6953125
440702.487846458,16.6015625,-5.859375,240.234375,-7.8125
440702.491752708,19.53125,0.0,530.2734375,-1.46484375
440702.499031333,-4.8828125,-0.48828125,220.21484375,1.953125
440702.502937583,-25.87890625,-6.8359375,-209.47265625,4.39453125
440702.506843833,0.48828125,-3.41796875,97.16796875,4.39453125
440702.510750083,35.64453125,-0.48828125,625.0,6.8359375
440702.514656333,11.71875,-8.7890625,310.546875,24.90234375
440702.518562583,-20.99609375,-8.30078125,-426.26953125,21.97265625
440702.522468833,5.859375,0.9765625,-640.13671875,24.4140625
440702.526375083,54.19921875,7.32421875,158.69140625,29.78515625
440702.530281333,46.38671875,8.30078125,565.91796875,20.01953125
440702.534187583,-8.7890625,7.32421875,-316.89453125,40.52734375
440702.538093833,-15.625,7.8125,-532.71484375,24.90234375
440702.542000083,24.4140625,11.71875,424.8046875,0.0
440702.549740083,35.15625,7.32421875,746.09375,17.08984375
440702.553646333,-4.8828125,-4.39453125,-124.0234375,12.20703125
440702.557552583,-14.16015625,-4.8828125,-435.05859375,4.8828125
440702.561458833,34.1796875,4.39453125,415.52734375,26.3671875
440702.565365083,60.546875,10.7421875,801.26953125,21.97265625
440702.569271333,31.73828125,3.41796875,-176.26953125,13.671875
440702.573177583,-8.7890625,-0.48828125,-863.28125,14.6484375
440702.577083833,16.11328125,11.71875,81.0546875,-2.44140625
440702.580990083,50.78125,12.6953125,764.6484375,0.0
440702.584896333,18.5546875,1.46484375,146.97265625,-4.39453125
440702.588802583,-9.765625,2.44140625,-415.52734375,-6.8359375
440702.592708833,5.859375,7.8125,-36.1328125,2.9296875
440702.596847833,41.015625,9.765625,405.76171875,8.7890625
440702.600754083,45.41015625,10.25390625,115.234375,17.08984375
440702.604660333,4.39453125,13.671875,-376.46484375,19.53125
440702.608566583,-11.23046875,18.06640625,-205.078125,3.41796875
440702.612472833,21.97265625,18.5546875,402.83203125,0.48828125
440702.616379083,28.3203125,15.13671875,259.27734375,17.578125
440702.620285333,-18.06640625,14.6484375,-341.30859375,8.7890625
440702.624191583,-40.0390625,13.18359375,-233.88671875,-2.44140625
440702.628097833,8.7890625,4.8828125,247.0703125,16.11328125
440702.632004083,32.71484375,-1.953125,157.2265625,17.08984375
440702.635910333,5.859375,-1.953125,-85.9375,8.7890625
440702.639816583,-10.25390625,-3.90625,-144.04296875,5.37109375
440702.646727083,11.23046875,-2.9296875,9.765625,0.9765625
440702.650633333,35.64453125,-4.39453125,446.77734375,1.953125
440702.654539583,16.11328125,-3.41796875,228.02734375,-4.8828125
440702.658445833,-23.92578125,0.0,-311.03515625,0.48828125
440702.662352083,-12.6953125,-1.953125,-289.55078125,-1.953125
440702.666258333,26.85546875,1.953125,-50.29296875,0.9765625
440702.670164583,24.90234375,8.30078125,136.23046875,0.48828125
440702.674070833,-16.11328125,-3.41796875,-113.28125,-3.41796875
440702.677977083,-29.78515625,-16.6015625,-570.80078125,0.9765625
440702.681883333,11.71875,-11.71875,-276.3671875,-5.37109375
440702.685789583,27.83203125,-4.8828125,599.12109375,-9.765625
440702.689695833,-10.25390625,-17.578125,139.6484375,-13.18359375
440702.695244666,-26.85546875,-17.08984375,-471.6796875,-8.30078125
440702.699150916,0.9765625,-9.765625,156.73828125,-9.27734375
440702.703057166,21.484375,-16.6015625,782.71484375,-17.08984375
440702.706963416,-7.8125,-26.3671875,259.27734375,-16.11328125
440702.710869666,-36.62109375,-32.71484375,-439.94140625,-14.6484375
440702.714775916,-15.13671875,-27.34375,-216.30859375,-25.390625
440702.718682166,8.7890625,-20.99609375,323.2421875,-29.296875
440702.722588416,-4.39453125,-26.3671875,155.2734375,-20.5078125
440702.726494666,-37.59765625,-31.25,-651.85546875,-9.27734375
440702.730400916,-22.4609375,-18.5546875,-429.19921875,4.8828125
440702.734307166,23.92578125,-14.16015625,650.390625,-1.46484375
440702.738213416,29.78515625,-24.90234375,531.25,-6.8359375
440702.741665,-6.34765625,-22.94921875,-536.62109375,-7.8125
440702.74557125,-10.25390625,-10.25390625,-391.6015625,-3.90625
440702.7494775,16.11328125,0.9765625,485.83984375,-4.39453125
440702.75338375,25.87890625,3.90625,533.203125,10.7421875
440702.75729,-8.7890625,-0.9765625,-36.1328125,22.94921875
440702.76119625,-31.73828125,0.0,-506.34765625,-4.8828125
440702.7651025,-6.34765625,1.953125,25.87890625,-11.71875
440702.76900875,14.6484375,-9.27734375,271.484375,-4.39453125
440702.772915,-6.34765625,-12.20703125,-368.1640625,-9.765625
440702.77682125,-36.1328125,-3.90625,-285.15625,-14.16015625
440702.7807275,-15.625,-4.39453125,228.02734375,-15.13671875
440702.78463375,21.484375,-6.34765625,270.99609375,-6.8359375
440702.766843833,5.859375,-7.8125,-51.7578125,11.23046875
440702.770750083,-40.0390625,-12.20703125,-105.46875,-4.39453125
440702.774656333,-39.55078125,-25.390625,-89.84375,-20.01953125
440702.778562583,2.44140625,-29.78515625,351.5625,-9.765625
440702.782468833,12.6953125,-30.2734375,547.36328125,-12.20703125
440702.786375083,-24.90234375,-35.15625,-188.96484375,-14.6484375
440702.790281333,-40.0390625,-31.25,-539.55078125,-16.11328125
440702.794187583,-9.765625,-27.83203125,-260.7421875,-12.6953125
440702.798093833,8.30078125,-24.90234375,189.453125,-2.44140625
440702.802000083,-19.53125,-31.25,154.78515625,-3.90625
440702.805906333,-41.9921875,-34.1796875,-454.58984375,9.27734375
440702.809812583,-17.08984375,-30.2734375,-158.69140625,4.8828125
440702.816388208,11.23046875,-23.92578125,666.9921875,-10.25390625
440702.820294458,-6.34765625,-26.85546875,519.53125,-13.671875
440702.824200708,-36.62109375,-36.1328125,-401.3671875,-3.41796875
440702.828106958,-20.01953125,-27.34375,-362.79296875,3.90625
440702.832013208,16.6015625,-16.6015625,605.95703125,-2.44140625
440702.835919458,16.6015625,-12.6953125,426.7578125,8.30078125
440702.839825708,-14.6484375,-19.53125,-603.02734375,13.671875
440702.843731958,-17.08984375,-23.92578125,-787.109375,11.71875
440702.847638208,22.4609375,-17.578125,355.46875,7.8125
440702.851544458,39.55078125,-27.83203125,767.08984375,7.32421875
440702.855450708,-10.25390625,-42.48046875,-83.984375,-0.9765625
440702.859356958,-42.48046875,-41.50390625,-349.12109375,-17.578125
440702.862111375,-9.27734375,-27.83203125,348.6328125,-19.53125
440702.866017625,18.5546875,-29.296875,530.2734375,-14.16015625
440702.869923875,2.44140625,-33.69140625,-216.796875,-6.8359375
440702.873830125,-22.4609375,-30.2734375,-481.4453125,-11.71875
440702.877736375,-0.48828125,-26.3671875,178.7109375,-17.08984375
440702.881642625,29.78515625,-22.94921875,526.85546875,4.39453125
440702.885548875,11.23046875,-29.78515625,-271.97265625,12.6953125
440702.889455125,-20.99609375,-27.83203125,-718.26171875,0.9765625
440702.893361375,-8.7890625,-17.578125,30.2734375,5.37109375
440702.897267625,26.85546875,-20.99609375,526.3671875,22.94921875
440702.901173875,25.390625,-25.390625,347.16796875,-2.9296875
440702.905080125,-6.34765625,-15.625,-69.3359375,-20.99609375
440702.934069125,-20.99609375,-14.16015625,-80.56640625,-18.5546875
440702.937975375,14.16015625,-17.578125,312.01171875,-11.71875
440702.941881625,34.1796875,-20.5078125,460.44921875,8.30078125
440702.945787875,-3.90625,-22.94921875,34.1796875,8.30078125
440702.949694125,-23.4375,-16.6015625,-435.546875,-4.39453125
440702.953600375,14.16015625,-12.20703125,-282.2265625,9.765625
440702.957506625,32.71484375,-15.625,-228.02734375,19.04296875
440702.961412875,-0.48828125,-9.27734375,-68.359375,15.13671875
440702.965319125,-34.1796875,-15.625,-144.53125,13.671875
440702.969225375,-12.20703125,-18.06640625,-66.89453125,7.32421875
440702.973131625,15.13671875,-25.390625,576.66015625,2.9296875
440702.977037875,5.37109375,-33.203125,578.125,5.37109375
440702.984681875,-25.87890625,-26.85546875,-151.3671875,7.32421875
440702.988588125,-28.3203125,-17.578125,-273.4375,-0.9765625
440702.992494375,15.13671875,-6.34765625,485.3515625,-0.9765625
440702.996400625,20.5078125,-6.34765625,708.0078125,1.46484375
440703.000306875,-20.99609375,-9.765625,-34.1796875,-6.34765625
440703.004213125,-32.71484375,-13.18359375,-585.44921875,-14.16015625
440703.008119375,0.9765625,-9.27734375,-123.53515625,-11.23046875
440703.012025625,20.99609375,-5.37109375,456.54296875,-14.6484375
440703.015931875,-7.8125,-13.18359375,47.8515625,-7.32421875
440703.019838125,-36.62109375,-20.5078125,-746.09375,-4.39453125
440703.023744375,-14.6484375,-8.30078125,-183.59375,-11.23046875
440703.027650625,20.5078125,3.41796875,740.234375,-7.8125
440703.009978833,1.46484375,-4.8828125,202.1484375,-10.25390625
440703.013885083,-38.0859375,-10.7421875,-617.1875,-5.37109375
440703.017791333,-21.484375,-6.34765625,-94.7265625,3.90625
440703.021697583,20.5078125,-9.765625,556.640625,8.7890625
440703.025603833,13.18359375,-7.32421875,270.5078125,10.25390625
440703.029510083,-28.80859375,-1.46484375,-577.1484375,1.953125
440703.033416333,-36.62109375,-5.37109375,-486.328125,-8.30078125
440703.037322583,3.90625,-7.8125,564.453125,-4.8828125
440703.041228833,10.25390625,-12.6953125,300.78125,14.6484375
440703.045135083,-29.78515625,-16.6015625,-820.80078125,4.39453125
440703.049041333,-44.921875,-3.41796875,-402.83203125,-14.6484375
440703.052947583,-16.11328125,-3.90625,428.7109375,-11.71875
440703.083867166,13.671875,-6.34765625,537.109375,-10.7421875
440703.087773416,-9.765625,-4.39453125,62.01171875,-2.9296875
440703.091679666,-38.0859375,-12.20703125,-176.26953125,-6.8359375
440703.095585916,-5.37109375,-15.625,236.328125,-5.859375
440703.099492166,25.87890625,-11.71875,581.0546875,0.0
440703.103398416,-12.6953125,-28.3203125,126.46484375,0.48828125
440703.107304666,-46.875,-32.71484375,-500.48828125,0.9765625
440703.111210916,-24.4140625,-18.5546875,-157.2265625,-10.25390625
440703.115117166,1.953125,-21.484375,50.29296875,1.953125
440703.119023416,10.7421875,-19.53125,125.9765625,-2.9296875
440703.122929666,-17.08984375,-21.484375,65.4296875,-24.90234375
440703.126835916,-24.90234375,-28.3203125,-301.7578125,-13.671875
440703.108013541,15.625,-22.94921875,149.4140625,5.859375
440703.111919791,29.78515625,-18.06640625,672.8515625,13.671875
440703.115826041,6.8359375,-22.94921875,222.65625,6.34765625
440703.119732291,-18.06640625,-29.296875,-406.73828125,1.46484375
440703.123638541,5.859375,-26.85546875,-55.6640625,0.9765625
440703.127544791,29.296875,-24.90234375,406.25,9.765625
440703.131451041,11.23046875,-28.3203125,55.17578125,15.625
440703.135357291,-7.8125,-33.203125,-633.30078125,-0.48828125
440703.139263541,4.8828125,-28.80859375,-572.75390625,-5.37109375
440703.143169791,34.66796875,-24.90234375,515.625,-0.9765625
440703.147076041,25.87890625,-34.1796875,479.98046875,5.37109375
440703.150982291,-6.34765625,-32.71484375,-354.00390625,2.9296875
440703.158541958,6.34765625,-22.4609375,-202.1484375,-1.46484375
440703.162448208,40.0390625,-19.04296875,638.671875,-3.41796875
440703.166354458,31.73828125,-28.3203125,452.1484375,4.8828125
440703.170260708,-9.27734375,-34.66796875,-502.9296875,8.30078125
440703.174166958,-26.3671875,-31.25,-458.49609375,4.39453125
440703.178073208,10.7421875,-30.2734375,211.9140625,8.30078125
440703.181979458,32.2265625,-27.34375,374.51171875,10.25390625
440703.185885708,-5.859375,-34.1796875,-446.77734375,15.625
440703.189791958,-29.78515625,-37.59765625,-660.64453125,0.0
440703.193698208,14.16015625,-28.80859375,373.53515625,-5.37109375
440703.197604458,45.41015625,-24.90234375,665.0390625,12.20703125
440703.201510708,10.7421875,-28.3203125,92.7734375,19.53125
440703.20379525,-21.484375,-30.76171875,-229.00390625,8.30078125
440703.2077015,2.44140625,-31.73828125,206.54296875,-4.39453125
440703.21160775,31.73828125,-40.52734375,608.3984375,5.859375
440703.215514,12.20703125,-48.33984375,360.83984375,5.37109375
440703.21942025,-25.87890625,-48.33984375,-152.83203125,-11.71875
440703.2233265,-20.99609375,-36.62109375,-275.390625,-13.671875
440703.22723275,19.04296875,-35.15625,-19.04296875,-2.44140625
440703.231139,41.015625,-40.52734375,-312.98828125,9.765625
440703.23504525,3.90625,-28.3203125,-429.19921875,6.34765625
440703.2389515,-18.06640625,-18.06640625,-322.75390625,-3.41796875
440703.24285775,13.18359375,-20.5078125,141.11328125,2.9296875
440703.246764,36.1328125,-22.94921875,631.8359375,11.71875
440703.25455825,18.06640625,-19.53125,323.73046875,5.859375
440703.2584645,-14.6484375,-23.4375,-142.578125,4.8828125
440703.26237075,1.953125,-15.625,71.77734375,0.0
440703.266277,25.390625,-10.7421875,635.25390625,-4.8828125
440703.27018325,1.46484375,-18.5546875,442.3828125,3.41796875
440703.2740895,-19.53125,-20.99609375,-307.6171875,-10.25390625
440703.27799575,4.39453125,-25.87890625,-646.97265625,-5.37109375
440703.281902,37.59765625,-19.04296875,-43.45703125,5.859375
440703.28580825,27.34375,-11.71875,357.91015625,-13.18359375
440703.2897145,-6.8359375,-21.484375,-246.09375,-6.8359375
440703.29362075,-2.9296875,-18.5546875,-524.4140625,-1.953125
440703.297527,34.1796875,-10.25390625,320.80078125,-8.30078125
440703.297225125,42.96875,-16.6015625,727.05078125,-0.48828125
440703.301131375,15.13671875,-27.34375,-74.21875,-6.34765625
440703.305037625,-5.859375,-27.83203125,-447.75390625,-10.7421875
440703.308943875,20.01953125,-18.5546875,371.58203125,-10.25390625
440703.312850125,38.57421875,-17.578125,730.95703125,-9.765625
440703.316756375,12.20703125,-27.34375,-229.00390625,-1.953125
440703.320662625,-14.6484375,-27.83203125,-847.16796875,8.7890625
440703.324568875,3.41796875,-18.06640625,39.0625,8.30078125
440703.328475125,32.71484375,-23.92578125,780.76171875,8.7890625
440703.332381375,8.7890625,-38.57421875,200.1953125,3.90625
440703.336287625,-25.87890625,-45.41015625,-598.6328125,0.0
440703.340193875,-6.34765625,-29.296875,-161.62109375,2.44140625
440703.342955708,30.2734375,-21.97265625,627.9296875,0.9765625
440703.346861958,23.92578125,-23.92578125,246.58203125,11.71875
440703.350768208,-14.6484375,-17.578125,-389.6484375,7.8125
440703.354674458,-17.08984375,-11.23046875,-158.69140625,-8.30078125
440703.358580708,26.3671875,-8.30078125,423.828125,-1.46484375
440703.362486958,34.66796875,-12.6953125,288.57421875,8.7890625
440703.366393208,-7.32421875,-19.53125,-286.62109375,6.34765625
440703.370299458,-26.85546875,-21.484375,-270.99609375,-9.765625
440703.374205708,12.20703125,-20.01953125,210.9375,-1.46484375
440703.378111958,44.43359375,-17.578125,229.98046875,6.8359375
440703.382018208,19.53125,-17.08984375,-5.859375,-15.13671875
440703.385924458,-7.8125,-20.01953125,-91.30859375,-2.44140625
440703.393406375,14.6484375,-16.6015625,-32.2265625,13.671875
440703.397312625,43.9453125,-17.578125,336.42578125,7.8125
440703.401218875,25.390625,-25.390625,392.578125,5.37109375
440703.405125125,-9.765625,-24.90234375,-37.59765625,-9.765625
440703.409031375,-11.71875,-27.83203125,-259.27734375,-14.6484375
440703.412937625,17.578125,-37.109375,-64.453125,-11.23046875
440703.416843875,18.06640625,-36.62109375,246.58203125,-11.71875
440703.420750125,-15.13671875,-33.203125,50.78125,-4.39453125
440703.424656375,-19.53125,-34.66796875,-514.16015625,2.44140625
440703.428562625,19.53125,-29.78515625,-291.9921875,4.39453125
440703.432468875,40.0390625,-21.484375,574.21875,-1.46484375
440703.436375125,11.23046875,-27.34375,226.07421875,-4.8828125
440703.444152083,-3.90625,-23.4375,-388.671875,-9.27734375
440703.448058333,22.94921875,-19.53125,190.91796875,-7.32421875
440703.451964583,52.24609375,-33.69140625,730.95703125,-4.39453125
440703.455870833,32.71484375,-40.52734375,44.921875,1.953125
440703.459777083,-12.6953125,-32.2265625,-681.15234375,4.8828125
440703.463683333,0.9765625,-25.390625,-430.17578125,11.23046875
440703.467589583,38.0859375,-23.92578125,384.27734375,13.671875
440703.471495833,35.15625,-31.25,433.10546875,9.27734375
440703.475402083,7.32421875,-39.0625,-609.375,1.46484375
440703.479308333,1.953125,-28.80859375,-485.83984375,-2.9296875
440703.483214583,29.296875,-18.06640625,666.015625,0.9765625
440703.487120833,37.109375,-24.4140625,621.09375,1.953125
440703.469563208,0.9765625,-35.15625,-183.59375,6.8359375
440703.473469458,-17.08984375,-35.15625,-199.21875,1.46484375
440703.477375708,22.4609375,-25.87890625,501.46484375,-13.671875
440703.481281958,43.9453125,-16.6015625,570.80078125,-9.765625
440703.485188208,5.37109375,-18.06640625,-40.0390625,-7.32421875
440703.489094458,-22.4609375,-18.06640625,-506.34765625,-9.765625
440703.493000708,1.953125,-8.7890625,-137.6953125,-15.625
440703.496906958,30.2734375,-9.765625,179.19921875,-7.8125
440703.500813208,8.30078125,-8.7890625,-547.36328125,3.41796875
440703.504719458,-20.01953125,1.953125,-534.66796875,-4.8828125
440703.508625708,-5.37109375,7.8125,93.75,-6.34765625
440703.512531958,36.62109375,9.765625,479.00390625,9.27734375
440703.541235083,38.0859375,1.953125,497.55859375,24.4140625
440703.545141333,-17.08984375,-3.41796875,67.87109375,-7.32421875
440703.549047583,-23.4375,-5.37109375,-70.3125,-31.73828125
440703.552953833,20.99609375,-14.16015625,361.81640625,-26.85546875
440703.556860083,23.4375,-24.4140625,596.6796875,-22.94921875
440703.560766333,-17.08984375,-20.99609375,-123.53515625,-7.32421875
440703.564672583,-22.4609375,-13.671875,-534.66796875,-18.06640625
440703.568578833,9.765625,-18.5546875,-273.92578125,-30.76171875
440703.572485083,30.2734375,-11.71875,133.7890625,-18.06640625
440703.576391333,17.08984375,2.9296875,69.3359375,-15.625
440703.580297583,-18.06640625,0.48828125,-438.4765625,-13.18359375
440703.584203833,-3.90625,-4.8828125,-188.96484375,-17.08984375
440703.566543458,30.76171875,2.44140625,623.53515625,-10.7421875
440703.570449708,22.4609375,4.8828125,552.734375,4.8828125
440703.574355958,-9.27734375,-1.953125,-272.4609375,3.41796875
440703.578262208,0.9765625,-4.39453125,-214.84375,-2.44140625
440703.582168458,33.69140625,-5.859375,615.72265625,3.90625
440703.586074708,22.94921875,-5.859375,462.40234375,1.46484375
440703.589980958,-17.08984375,-8.30078125,-577.63671875,-8.30078125
440703.593887208,-28.80859375,-5.859375,-753.90625,-0.9765625
440703.597793458,8.30078125,0.0,406.25,2.44140625
440703.601699708,29.296875,-5.859375,787.59765625,-2.44140625
440703.605605958,-3.41796875,-11.23046875,-93.75,11.23046875
440703.609512208,-30.76171875,-16.6015625,-563.96484375,16.6015625
440703.61731775,8.7890625,-10.7421875,138.671875,1.46484375
440703.621224,41.50390625,-3.41796875,759.765625,8.30078125
440703.62513025,18.5546875,1.953125,25.87890625,7.8125
440703.6290365,-16.6015625,11.71875,-502.44140625,-1.953125
440703.63294275,-1.46484375,16.6015625,123.046875,6.34765625
440703.636849,28.80859375,13.18359375,563.96484375,3.90625
440703.64075525,4.39453125,5.859375,-197.265625,6.34765625
440703.6446615,-34.1796875,4.8828125,-626.46484375,0.48828125
440703.64856775,-22.94921875,5.859375,-15.13671875,-0.48828125
440703.652474,12.20703125,9.27734375,350.09765625,20.5078125
440703.65638025,5.37109375,9.27734375,397.4609375,6.34765625
440703.6602865,-37.109375,10.25390625,35.15625,3.41796875
440703.666636541,-38.57421875,15.625,-64.94140625,-0.9765625
440703.670542791,-4.8828125,13.18359375,351.07421875,-20.5078125
440703.674449041,10.25390625,10.25390625,325.1953125,-10.7421875
440703.678355291,-3.41796875,10.7421875,-6.34765625,-4.8828125
440703.682261541,-20.5078125,6.34765625,-141.6015625,-9.27734375
440703.686167791,9.765625,1.953125,-107.91015625,-16.6015625
440703.690074041,29.78515625,0.9765625,-264.6484375,-6.8359375
440703.693980291,-4.8828125,9.27734375,-108.88671875,-8.7890625
440703.697886541,-35.64453125,11.23046875,-137.20703125,-10.7421875
440703.701792791,-23.92578125,16.11328125,-126.953125,-13.671875
440703.705699041,3.41796875,18.06640625,543.45703125,-16.6015625
440703.709605291,-2.9296875,6.8359375,579.1015625,-11.23046875
440703.715834125,-42.48046875,-6.8359375,-74.70703125,-18.5546875
440703.719740375,-39.0625,-7.8125,-224.12109375,-21.484375
440703.723646625,4.8828125,0.0,442.3828125,-18.06640625
440703.727552875,6.34765625,-6.34765625,722.16796875,-14.16015625
440703.731459125,-36.1328125,-17.08984375,-10.25390625,-13.18359375
440703.735365375,-45.41015625,-10.7421875,-539.55078125,-15.13671875
440703.739271625,-5.37109375,0.0,-111.81640625,-9.765625
440703.743177875,8.30078125,-0.9765625,466.30859375,-16.6015625
440703.747084125,-25.87890625,-15.13671875,187.01171875,-9.765625
440703.750990375,-36.1328125,-27.34375,-828.61328125,-1.953125
440703.754896625,-6.8359375,-12.20703125,-389.16015625,-13.671875
440703.758802875,22.94921875,-5.37109375,804.19921875,-13.18359375
440703.766343875,18.06640625,-13.671875,370.1171875,-8.30078125
440703.770250125,-8.7890625,-13.18359375,-363.76953125,-5.859375
440703.774156375,0.48828125,-1.953125,-9.765625,-17.578125
440703.778062625,34.1796875,2.44140625,708.984375,-14.16015625
440703.781968875,22.94921875,-9.27734375,463.37890625,4.8828125
440703.785875125,-13.671875,-21.97265625,-507.8125,-0.48828125
440703.789781375,-17.08984375,-20.5078125,-482.421875,-11.71875
440703.793687625,14.6484375,-14.6484375,328.125,-14.16015625
440703.797593875,28.80859375,-21.484375,136.71875,-11.23046875
440703.801500125,-9.27734375,-14.6484375,-820.80078125,-6.34765625
440703.805406375,-37.109375,0.48828125,-495.1171875,-9.27734375
440703.809312625,2.44140625,-3.41796875,386.23046875,6.8359375
440703.831301708,37.109375,-3.41796875,539.55078125,10.7421875
440703.835207958,16.11328125,-2.44140625,209.47265625,-6.34765625
440703.839114208,-11.23046875,-0.9765625,-95.703125,-4.8828125
440703.843020458,-0.9765625,-3.41796875,156.73828125,-4.8828125
440703.846926708,23.4375,-13.18359375,510.7421875,-0.48828125
440703.850832958,15.13671875,-18.5546875,144.53125,1.953125
440703.854739208,-13.671875,-5.859375,-444.3359375,-1.953125
440703.858645458,-4.8828125,1.46484375,-154.296875,2.9296875
440703.862551708,33.203125,-4.39453125,39.55078125,20.01953125
440703.866457958,27.83203125,0.0,76.171875,4.8828125
440703.870364208,-10.7421875,-1.953125,-203.125,-13.671875
440703.874270458,-20.5078125,-11.71875,-543.9453125,-6.34765625
440703.856498833,12.20703125,-14.16015625,2.44140625,-0.48828125
440703.860405083,25.390625,-1.953125,605.46875,-4.8828125
440703.864311333,-4.39453125,-3.41796875,164.55078125,-2.44140625
440703.868217583,-27.83203125,-9.27734375,-490.234375,1.953125
440703.872123833,6.34765625,-4.39453125,26.3671875,-4.39453125
440703.876030083,45.8984375,-8.30078125,458.49609375,-10.25390625
440703.879936333,20.01953125,-12.20703125,148.4375,-19.53125
440703.883842583,-11.23046875,-16.11328125,-580.078125,-16.11328125
440703.887748833,8.30078125,-14.16015625,-525.390625,-1.953125
440703.891655083,32.71484375,-5.859375,696.2890625,0.0
440703.895561333,10.25390625,-11.71875,663.0859375,-19.04296875
440703.899467583,-22.94921875,-16.11328125,-247.55859375,-20.01953125
440703.905399125,-19.53125,-16.11328125,-334.47265625,-28.3203125
440703.909305375,9.765625,-11.71875,414.55078125,-29.296875
440703.913211625,16.6015625,-9.765625,647.4609375,-9.765625
440703.917117875,-13.18359375,-12.6953125,-250.9765625,-2.44140625
440703.921024125,-23.4375,-15.13671875,-425.78125,-7.8125
440703.924930375,6.8359375,-14.6484375,258.7890625,-8.30078125
440703.928836625,22.94921875,-18.5546875,435.05859375,-7.32421875
440703.932742875,-23.92578125,-28.80859375,-405.76171875,-8.30078125
440703.936649125,-56.15234375,-23.4375,-681.15234375,-20.5078125
440703.940555375,-29.296875,-9.765625,308.10546875,-23.92578125
440703.944461625,-7.8125,-12.6953125,621.09375,-8.7890625
440703.948367875,-29.296875,-22.4609375,166.50390625,0.0
440703.955787208,-50.78125,-14.16015625,-153.80859375,6.34765625
440703.959693458,-30.2734375,-7.32421875,204.58984375,13.671875
440703.963599708,7.8125,-9.765625,564.453125,9.765625
440703.967505958,1.953125,-11.71875,156.73828125,6.8359375
440703.971412208,-33.203125,-15.625,-313.96484375,9.765625
440703.975318458,-20.5078125,-18.5546875,-307.12890625,4.39453125
440703.979224708,19.53125,-15.625,-25.87890625,4.8828125
440703.983130958,13.18359375,-18.5546875,-292.48046875,13.18359375
440703.987037208,-19.04296875,-13.671875,-343.26171875,3.90625
440703.990943458,-27.83203125,-14.16015625,-83.49609375,-4.39453125
440703.994849708,-5.859375,-16.11328125,201.171875,2.9296875
440703.998755958,13.18359375,-18.5546875,621.09375,-3.41796875
440704.002174916,-6.34765625,-21.97265625,286.1328125,-1.953125
440704.006081166,-29.78515625,-20.5078125,-236.328125,6.8359375
440704.009987416,-14.6484375,-9.27734375,23.4375,-0.48828125
440704.013893666,18.06640625,-1.46484375,630.859375,-1.953125
440704.017799916,6.8359375,-12.6953125,452.1484375,12.6953125
440704.021706166,-39.0625,-19.53125,-381.8359375,17.578125
440704.025612416,-23.4375,-19.53125,-808.59375,12.6953125
440704.029518666,16.6015625,-14.16015625,-114.2578125,11.71875
440704.033424916,5.859375,-10.25390625,602.05078125,12.20703125
440704.037331166,-31.73828125,-15.13671875,-60.05859375,-6.34765625
440704.041237416,-33.69140625,-12.20703125,-474.12109375,-12.20703125
440704.045143666,0.0,-9.27734375,379.39453125,-3.41796875
440704.052496916,6.8359375,-7.32421875,841.30859375,6.34765625
440704.056403166,-16.6015625,-6.8359375,35.64453125,9.27734375
440704.060309416,-35.15625,-9.765625,-470.703125,-0.9765625
440704.064215666,-2.9296875,-0.48828125,252.44140625,6.34765625
440704.068121916,31.25,3.90625,786.62109375,7.32421875
440704.072028166,0.48828125,0.9765625,-113.76953125,12.6953125
440704.075934416,-37.59765625,-0.48828125,-848.6328125,9.27734375
440704.079840666,-15.625,2.44140625,35.15625,-11.71875
440704.083746916,17.08984375,-2.9296875,698.73046875,-3.41796875
440704.087653166,0.48828125,-17.08984375,-76.171875,5.859375
440704.091559416,-33.69140625,-20.5078125,-741.69921875,-8.7890625
440704.095465666,-20.01953125,-16.6015625,-57.6171875,-4.39453125
440704.100283083,20.99609375,-18.06640625,561.03515625,4.8828125
440704.104189333,16.11328125,-22.94921875,374.0234375,-12.20703125
440704.108095583,-23.92578125,-31.25,-149.90234375,-27.83203125
440704.112001833,-38.0859375,-29.296875,-146.97265625,-27.34375
440704.115908083,2.9296875,-26.85546875,400.390625,-20.99609375
440704.119814333,28.3203125,-28.80859375,302.734375,-3.90625
440704.123720583,-11.23046875,-18.06640625,-269.04296875,-7.32421875
440704.127626833,-32.2265625,-8.30078125,-196.2890625,-12.6953125
440704.131533083,1.953125,-17.08984375,234.86328125,-5.859375
440704.135439333,24.4140625,-16.6015625,222.65625,-2.9296875
440704.139345583,5.859375,-11.71875,16.11328125,0.9765625
440704.143251833,-25.390625,-19.04296875,-345.703125,-2.9296875
440704.1510005,-13.671875,-21.97265625,-394.53125,-3.90625
440704.15490675,25.87890625,-17.578125,157.2265625,-7.32421875
440704.158813,25.390625,-20.01953125,399.90234375,-7.32421875
440704.16271925,-21.97265625,-29.296875,-65.4296875,-10.25390625
440704.1666255,-28.3203125,-31.25,-276.85546875,4.39453125
440704.17053175,16.11328125,-32.2265625,71.2890625,17.578125
440704.174438,27.34375,-31.73828125,277.34375,7.8125
440704.17834425,2.9296875,-37.109375,72.75390625,-4.39453125
440704.1822505,0.9765625,-53.7109375,-548.33984375,4.39453125
440704.18615675,22.4609375,-58.10546875,-398.4375,20.5078125
